Mar 17 2018 at 9:46:21
Frequency: 1.00Hz.
CO2
Zero:  Value:0.91  Date:May 19 2009 at 7:53:33 AM
Span:  Value:1.00  Date:May 19 2009 at 8:00:06 AM
H2O
Zero:  Value:0.77  Date:May 19 2009 at 7:54:01 AM
Span:  Value:1.01  Date:28 Jun 2004	 at 08:29:05	
Light rain, cloud cover, low temps
	Relative Time	Temperature	Pressure	Aux Input	CO2 Absorptance	CO2 mmol/m3	CO2 mg/m3	CO2 umol/mol	H2O Absorptance	H2O mmol/m3	H2O g/m3	H2O mmol/mol	H2O(°C)	Cooler Voltage
	0.52	17.21	64.37	0.00	0.0622	11.41	502.2	428.07	0.0426	313.6	5.644	11.76	2.93	1.34
	1.50	17.20	64.35	0.00	0.0618	11.41	501.9	427.90	0.0433	317.3	5.712	11.91	3.09	1.34
	2.50	17.18	64.39	0.00	0.0620	11.39	501.1	426.87	0.0432	318.7	5.737	11.95	3.15	1.34
	3.50	17.20	64.37	0.00	0.0620	11.42	502.6	428.32	0.0426	314.7	5.665	11.80	2.98	1.34
	4.50	17.20	64.37	0.00	0.0619	11.41	502.1	427.95	0.0432	317.8	5.720	11.92	3.11	1.34
	5.50	17.23	64.37	0.00	0.0620	11.37	500.2	426.38	0.0437	325.7	5.863	12.21	3.46	1.34
	6.50	17.20	64.37	0.00	0.0620	11.39	501.4	427.29	0.0432	322.9	5.813	12.11	3.34	1.34
	7.51	17.20	64.37	0.00	0.0619	11.40	501.7	427.62	0.0438	324.6	5.842	12.17	3.41	1.34
	8.50	17.18	64.38	0.00	0.0618	11.40	501.7	427.54	0.0439	323.7	5.827	12.14	3.37	1.34
	9.52	17.20	64.40	0.00	0.0620	11.36	499.8	425.77	0.0441	327.7	5.898	12.28	3.55	1.34
	10.50	17.20	64.37	0.00	0.0619	11.39	501.2	427.18	0.0438	325.0	5.851	12.19	3.43	1.34
	11.52	17.21	64.37	0.00	0.0618	11.36	499.9	426.07	0.0443	328.6	5.916	12.32	3.59	1.34
	12.50	17.18	64.37	0.00	0.0618	11.35	499.3	425.52	0.0443	330.7	5.953	12.40	3.68	1.34
	13.52	17.20	64.37	0.00	0.0618	11.36	499.9	426.02	0.0449	333.2	5.998	12.49	3.78	1.34
	14.50	17.18	64.37	0.00	0.0618	11.37	500.2	426.28	0.0446	331.7	5.970	12.44	3.72	1.34
	15.52	17.21	64.37	0.00	0.0616	11.37	500.3	426.44	0.0454	334.3	6.018	12.54	3.83	1.34
	16.50	17.21	64.37	0.00	0.0618	11.35	499.5	425.73	0.0446	333.9	6.011	12.52	3.82	1.34
	17.52	17.21	64.37	0.00	0.0618	11.35	499.3	425.58	0.0446	336.0	6.048	12.60	3.90	1.34
	18.50	17.21	64.37	0.00	0.0618	11.37	500.1	426.28	0.0445	334.7	6.025	12.55	3.85	1.34
	19.52	17.21	64.37	0.00	0.0618	11.36	499.8	425.97	0.0451	342.9	6.172	12.86	4.19	1.34
	20.50	17.21	64.40	0.00	0.0617	11.37	500.3	426.23	0.0449	337.9	6.082	12.67	3.98	1.34
	21.52	17.21	64.37	0.00	0.0617	11.34	498.9	425.26	0.0457	340.4	6.126	12.76	4.09	1.34
	22.58	17.21	64.37	0.00	0.0618	11.32	497.9	424.36	0.0453	343.5	6.183	12.88	4.22	1.34
	23.50	17.21	64.37	0.00	0.0615	11.35	499.3	425.58	0.0453	342.2	6.160	12.83	4.16	1.34
	24.52	17.21	64.37	0.00	0.0617	11.36	499.9	426.08	0.0452	341.2	6.141	12.79	4.12	1.34
	25.50	17.20	64.37	0.00	0.0617	11.32	498.1	424.56	0.0454	340.9	6.137	12.78	4.11	1.34
	26.52	17.21	64.37	0.00	0.0618	11.34	499.1	425.37	0.0455	342.3	6.161	12.84	4.17	1.34
	27.50	17.21	64.37	0.00	0.0617	11.37	500.1	426.23	0.0453	341.8	6.153	12.82	4.15	1.34
	28.52	17.21	64.37	0.00	0.0617	11.35	499.4	425.61	0.0454	341.8	6.153	12.82	4.15	1.34
	29.50	17.20	64.37	0.00	0.0616	11.34	499.1	425.38	0.0454	341.3	6.144	12.80	4.13	1.34
	30.52	17.23	64.40	0.00	0.0617	11.34	498.9	425.04	0.0459	346.3	6.233	12.98	4.33	1.34
	31.50	17.21	64.37	0.00	0.0616	11.32	497.9	424.39	0.0459	346.1	6.231	12.98	4.33	1.34
	32.52	17.23	64.37	0.00	0.0615	11.30	497.2	423.82	0.0459	346.0	6.228	12.98	4.32	1.34
	33.50	17.20	64.37	0.00	0.0615	11.30	497.2	423.73	0.0457	346.2	6.232	12.98	4.33	1.34
	34.52	17.21	64.37	0.00	0.0615	11.29	496.9	423.55	0.0460	348.6	6.274	13.07	4.43	1.34
	35.50	17.21	64.37	0.00	0.0614	11.33	498.5	424.89	0.0462	347.7	6.259	13.04	4.39	1.34
	36.52	17.21	64.37	0.00	0.0617	11.31	497.6	424.08	0.0463	349.9	6.299	13.12	4.48	1.34
	37.66	17.21	64.37	0.00	0.0616	11.28	496.5	423.15	0.0462	352.6	6.346	13.22	4.59	1.34
	38.50	17.21	64.37	0.00	0.0614	11.30	497.1	423.65	0.0462	350.5	6.309	13.14	4.50	1.34
	39.58	17.21	64.37	0.00	0.0615	11.32	498.1	424.54	0.0462	348.9	6.280	13.08	4.44	1.34
	40.50	17.21	64.37	0.00	0.0614	11.29	496.7	423.31	0.0466	353.1	6.355	13.24	4.61	1.34
	41.52	17.21	64.37	0.00	0.0614	11.29	497.0	423.56	0.0462	350.5	6.309	13.15	4.51	1.34
	42.50	17.21	64.37	0.00	0.0613	11.28	496.4	423.10	0.0466	353.3	6.359	13.25	4.62	1.34
	43.52	17.21	64.37	0.00	0.0612	11.27	496.1	422.83	0.0465	353.1	6.356	13.24	4.61	1.34
	44.50	17.20	64.37	0.00	0.0612	11.27	495.9	422.65	0.0465	353.7	6.367	13.26	4.64	1.34
	45.50	17.21	64.37	0.00	0.0613	11.27	495.9	422.65	0.0465	353.8	6.368	13.27	4.64	1.34
	46.48	17.21	64.37	0.00	0.0613	11.27	496.0	422.73	0.0466	356.0	6.407	13.35	4.73	1.34
	47.50	17.21	64.37	0.00	0.0613	11.28	496.2	422.94	0.0462	352.8	6.351	13.23	4.60	1.34
	48.48	17.21	64.37	0.00	0.0612	11.26	495.6	422.41	0.0466	353.1	6.357	13.24	4.61	1.34
	49.50	17.21	64.37	0.00	0.0613	11.23	494.2	421.24	0.0466	354.5	6.381	13.29	4.67	1.34
	50.48	17.21	64.37	0.00	0.0613	11.25	494.8	421.73	0.0465	352.4	6.343	13.22	4.58	1.34
	51.50	17.21	64.37	0.00	0.0613	11.21	493.2	420.32	0.0466	355.7	6.403	13.34	4.72	1.34
	52.48	17.20	64.37	0.00	0.0613	11.22	493.5	420.61	0.0467	358.2	6.448	13.43	4.82	1.34
	53.50	17.21	64.39	0.00	0.0611	11.25	494.9	421.63	0.0466	354.4	6.378	13.28	4.66	1.34
	54.56	17.23	64.37	0.00	0.0611	11.20	492.9	420.14	0.0467	353.8	6.368	13.27	4.64	1.34
	55.50	17.23	64.37	0.00	0.0613	11.18	492.0	419.38	0.0467	354.3	6.377	13.29	4.66	1.34
	56.50	17.25	64.37	0.00	0.0609	11.19	492.5	419.85	0.0464	354.1	6.373	13.28	4.65	1.34
	57.50	17.23	64.37	0.00	0.0610	11.22	493.5	420.62	0.0465	353.7	6.366	13.26	4.64	1.34
	58.50	17.26	64.37	0.00	0.0610	11.20	492.9	420.14	0.0468	353.6	6.364	13.26	4.63	1.34
	59.50	17.25	64.37	0.00	0.0610	11.14	490.4	417.98	0.0469	355.5	6.399	13.33	4.71	1.34
	60.50	17.25	64.37	0.00	0.0611	11.16	491.0	418.58	0.0465	352.2	6.339	13.21	4.57	1.34
	61.50	17.23	64.37	0.00	0.0609	11.12	489.4	417.14	0.0468	354.0	6.372	13.28	4.65	1.34
	62.50	17.23	64.37	0.00	0.0610	11.14	490.1	417.71	0.0467	356.5	6.417	13.37	4.75	1.34
	63.50	17.25	64.37	0.00	0.0609	11.13	489.6	417.33	0.0466	355.8	6.404	13.34	4.72	1.34
	64.50	17.23	64.37	0.00	0.0607	11.12	489.2	416.95	0.0467	354.0	6.371	13.28	4.65	1.34
	65.50	17.23	64.37	0.00	0.0608	11.09	488.1	416.05	0.0466	356.5	6.417	13.37	4.75	1.34
	66.50	17.23	64.37	0.00	0.0607	11.10	488.2	416.14	0.0465	349.7	6.294	13.11	4.47	1.34
	67.50	17.23	64.37	0.00	0.0607	11.09	488.1	416.03	0.0463	351.0	6.318	13.16	4.53	1.34
	68.50	17.23	64.37	0.00	0.0606	11.11	488.8	416.61	0.0465	350.8	6.314	13.15	4.52	1.34
	69.58	17.23	64.37	0.00	0.0605	11.06	486.5	414.68	0.0463	350.9	6.316	13.16	4.52	1.34
	70.50	17.23	64.37	0.00	0.0605	11.02	484.9	413.33	0.0463	350.8	6.315	13.16	4.52	1.34
	71.52	17.23	64.37	0.00	0.0603	11.04	485.6	413.88	0.0462	348.6	6.275	13.07	4.43	1.34
	72.50	17.23	64.37	0.00	0.0602	11.04	485.8	414.10	0.0461	350.3	6.306	13.14	4.50	1.34
	73.52	17.25	64.35	0.00	0.0602	10.98	483.1	411.99	0.0459	347.9	6.262	13.05	4.40	1.34
	74.50	17.23	64.35	0.00	0.0600	10.94	481.5	410.54	0.0462	349.4	6.289	13.11	4.46	1.34
	75.52	17.25	64.37	0.00	0.0600	10.96	482.2	410.99	0.0457	346.0	6.228	12.98	4.32	1.34
	76.50	17.25	64.37	0.00	0.0600	10.90	479.5	408.69	0.0459	345.5	6.219	12.96	4.30	1.34
	77.50	17.26	64.40	0.00	0.0596	10.90	479.5	408.61	0.0458	346.7	6.240	13.00	4.35	1.34
	78.50	17.25	64.37	0.00	0.0598	10.85	477.6	407.07	0.0456	346.4	6.236	12.99	4.34	1.34
	79.50	17.25	64.37	0.00	0.0596	10.85	477.4	406.97	0.0458	346.4	6.234	12.99	4.34	1.34
	80.50	17.25	64.37	0.00	0.0593	10.82	475.9	405.63	0.0457	345.6	6.221	12.96	4.31	1.34
	81.52	17.25	64.37	0.00	0.0593	10.76	473.5	403.60	0.0458	346.0	6.227	12.98	4.32	1.34
	82.58	17.25	64.37	0.00	0.0590	10.75	472.8	403.02	0.0458	346.4	6.236	12.99	4.34	1.34
	83.50	17.25	64.37	0.00	0.0590	10.70	471.0	401.47	0.0456	346.3	6.234	12.99	4.34	1.34
	84.58	17.23	64.39	0.00	0.0586	10.65	468.7	399.39	0.0461	347.2	6.249	13.02	4.37	1.34
	85.50	17.23	64.37	0.00	0.0584	10.58	465.4	396.66	0.0459	346.9	6.244	13.01	4.36	1.34
	86.52	17.23	64.37	0.00	0.0582	10.51	462.5	394.23	0.0462	348.9	6.279	13.08	4.44	1.34
	87.50	17.25	64.40	0.00	0.0581	10.47	460.8	392.63	0.0460	347.6	6.256	13.03	4.39	1.34
	88.52	17.23	64.37	0.00	0.0578	10.44	459.4	391.61	0.0454	344.4	6.200	12.92	4.26	1.34
	89.50	17.21	64.37	0.00	0.0574	10.37	456.1	388.76	0.0458	347.8	6.261	13.04	4.40	1.34
	90.52	17.25	64.40	0.00	0.0570	10.28	452.3	385.42	0.0457	344.0	6.192	12.90	4.24	1.34
	91.50	17.25	64.37	0.00	0.0568	10.18	448.0	381.85	0.0456	344.7	6.204	12.93	4.27	1.34
	92.52	17.25	64.37	0.00	0.0563	10.10	444.2	378.67	0.0453	349.9	6.298	13.12	4.48	1.34
