Mar 17 2018 at 8:24:22
Frequency: 1.00Hz.
CO2
Zero:  Value:0.91  Date:May 19 2009 at 7:53:33 AM
Span:  Value:1.00  Date:May 19 2009 at 8:00:06 AM
H2O
Zero:  Value:0.77  Date:May 19 2009 at 7:54:01 AM
Span:  Value:1.01  Date:28 Jun 2004	 at 08:29:05	
Windy, High light, cold, drizzles
	Relative Time	Temperature	Pressure	Aux Input	CO2 Absorptance	CO2 mmol/m3	CO2 mg/m3	CO2 umol/mol	H2O Absorptance	H2O mmol/m3	H2O g/m3	H2O mmol/mol	H2O(°C)	Cooler Voltage
	0.25	15.97	64.29	0.00	0.0642	11.94	525.3	446.32	0.0569	462.8	8.330	17.30	8.48	1.42
	1.25	15.97	64.32	0.00	0.0641	11.94	525.3	446.15	0.0567	463.1	8.336	17.31	8.49	1.42
	2.25	15.94	64.32	0.00	0.0642	11.94	525.2	446.07	0.0572	466.1	8.390	17.42	8.58	1.42
	3.25	15.97	64.35	0.00	0.0642	11.93	524.9	445.65	0.0569	464.3	8.358	17.35	8.53	1.42
	4.25	15.97	64.29	0.00	0.0642	11.93	525.0	446.12	0.0575	471.6	8.489	17.63	8.76	1.42
	5.24	15.97	64.32	0.00	0.0641	11.94	525.2	446.08	0.0572	469.4	8.450	17.54	8.69	1.42
	6.25	15.97	64.35	0.00	0.0642	11.94	525.2	445.91	0.0573	469.9	8.458	17.55	8.70	1.42
	7.25	16.00	64.32	0.00	0.0642	11.93	525.0	445.97	0.0579	476.6	8.578	17.81	8.91	1.42
	8.25	15.99	64.29	0.00	0.0642	11.94	525.4	446.49	0.0576	474.7	8.545	17.75	8.86	1.42
	9.25	15.99	64.32	0.00	0.0642	11.94	525.3	446.23	0.0580	474.8	8.546	17.75	8.86	1.42
	10.25	15.97	64.29	0.00	0.0642	11.94	525.2	446.26	0.0580	476.8	8.582	17.83	8.92	1.42
	11.25	15.99	64.32	0.00	0.0642	11.94	525.3	446.22	0.0585	481.4	8.665	17.99	9.06	1.42
	12.25	15.99	64.32	0.00	0.0642	11.94	525.5	446.35	0.0581	479.2	8.626	17.91	9.00	1.42
	13.25	15.97	64.29	0.00	0.0642	11.94	525.5	446.50	0.0582	479.9	8.637	17.94	9.01	1.42
	14.25	15.99	64.27	0.00	0.0642	11.94	525.5	446.73	0.0584	480.7	8.653	17.98	9.04	1.42
	15.25	15.99	64.32	0.00	0.0642	11.95	525.7	446.52	0.0584	482.6	8.686	18.03	9.10	1.42
	16.48	16.00	64.34	0.00	0.0642	11.95	525.8	446.52	0.0586	483.9	8.710	18.08	9.14	1.42
	17.25	16.00	64.32	0.00	0.0644	11.95	526.0	446.78	0.0587	486.2	8.751	18.17	9.21	1.42
	18.23	16.00	64.32	0.00	0.0643	11.95	525.9	446.75	0.0588	486.3	8.754	18.18	9.21	1.42
	19.25	16.00	64.29	0.00	0.0642	11.95	525.9	446.94	0.0588	486.6	8.759	18.19	9.22	1.42
	20.23	16.00	64.32	0.00	0.0643	11.96	526.4	447.12	0.0593	492.1	8.859	18.39	9.39	1.42
	21.25	16.02	64.29	0.00	0.0643	11.96	526.1	447.08	0.0590	490.1	8.822	18.33	9.33	1.42
	22.33	16.00	64.29	0.00	0.0643	11.96	526.3	447.28	0.0592	491.5	8.847	18.38	9.37	1.42
	23.25	16.02	64.29	0.00	0.0644	11.97	526.8	447.70	0.0594	496.0	8.929	18.55	9.51	1.42
	24.27	16.02	64.32	0.00	0.0643	11.98	527.0	447.72	0.0593	495.9	8.926	18.54	9.51	1.42
	25.25	16.04	64.29	0.00	0.0643	11.97	526.7	447.60	0.0594	495.0	8.910	18.51	9.48	1.42
	26.25	16.04	64.32	0.00	0.0643	11.97	526.8	447.51	0.0596	496.9	8.944	18.57	9.54	1.42
	27.25	16.02	64.32	0.00	0.0643	11.97	526.8	447.56	0.0597	497.3	8.951	18.59	9.55	1.42
	28.25	16.02	64.32	0.00	0.0643	11.98	527.2	447.88	0.0600	500.5	9.008	18.71	9.64	1.42
	29.25	16.04	64.32	0.00	0.0644	11.99	527.3	448.00	0.0599	501.0	9.018	18.73	9.66	1.42
	30.25	16.04	64.32	0.00	0.0643	11.98	527.2	447.85	0.0600	500.0	9.000	18.69	9.63	1.42
	31.23	16.04	64.32	0.00	0.0643	11.98	527.1	447.81	0.0601	501.6	9.029	18.75	9.68	1.42
	32.25	16.04	64.32	0.00	0.0644	11.99	527.5	448.10	0.0604	503.9	9.070	18.83	9.74	1.42
	33.23	16.04	64.32	0.00	0.0643	11.98	527.2	447.87	0.0602	504.0	9.073	18.84	9.75	1.42
	34.23	16.04	64.32	0.00	0.0645	11.99	527.7	448.33	0.0611	509.7	9.174	19.05	9.91	1.42
	35.23	16.05	64.29	0.00	0.0643	11.97	526.5	447.46	0.0605	506.8	9.123	18.95	9.83	1.42
	36.23	16.05	64.32	0.00	0.0644	11.99	527.4	448.08	0.0604	506.9	9.124	18.95	9.83	1.42
	37.31	16.05	64.32	0.00	0.0644	11.99	527.4	448.12	0.0605	506.9	9.123	18.95	9.83	1.42
	38.23	16.05	64.32	0.00	0.0644	11.99	527.6	448.24	0.0607	508.5	9.152	19.01	9.88	1.42
	39.25	16.07	64.32	0.00	0.0644	12.00	527.9	448.50	0.0610	513.2	9.237	19.18	10.02	1.42
	40.23	16.05	64.32	0.00	0.0642	11.99	527.5	448.12	0.0607	509.5	9.170	19.04	9.91	1.42
	41.25	16.07	64.29	0.00	0.0644	11.99	527.5	448.37	0.0608	510.2	9.184	19.08	9.93	1.42
	42.23	16.07	64.32	0.00	0.0644	11.99	527.4	448.12	0.0609	510.6	9.191	19.09	9.94	1.42
	43.25	16.07	64.32	0.00	0.0643	11.99	527.7	448.33	0.0610	514.0	9.252	19.22	10.04	1.42
	44.23	16.07	64.32	0.00	0.0644	11.99	527.5	448.19	0.0611	512.9	9.232	19.17	10.01	1.42
	45.25	16.07	64.32	0.00	0.0644	11.99	527.5	448.17	0.0612	514.8	9.266	19.24	10.06	1.42
	46.23	16.09	64.32	0.00	0.0643	12.00	527.8	448.49	0.0614	517.7	9.318	19.35	10.15	1.42
	47.25	16.07	64.32	0.00	0.0644	11.99	527.7	448.33	0.0613	517.7	9.318	19.35	10.15	1.42
	48.25	16.09	64.32	0.00	0.0644	11.99	527.5	448.18	0.0616	518.5	9.332	19.38	10.17	1.42
	49.25	16.09	64.29	0.00	0.0645	12.01	528.4	449.15	0.0622	524.5	9.442	19.62	10.35	1.42
	50.25	16.09	64.27	0.00	0.0644	12.00	527.8	448.79	0.0615	520.1	9.361	19.46	10.22	1.42
	51.25	16.09	64.32	0.00	0.0644	11.99	527.7	448.37	0.0615	519.5	9.351	19.42	10.20	1.42
	52.31	16.07	64.32	0.00	0.0644	11.99	527.7	448.34	0.0615	520.2	9.363	19.45	10.22	1.42
	53.23	16.09	64.32	0.00	0.0644	11.98	527.3	448.01	0.0618	521.0	9.378	19.48	10.24	1.42
	54.25	16.09	64.32	0.00	0.0644	11.99	527.8	448.43	0.0618	522.6	9.407	19.54	10.29	1.42
	55.23	16.09	64.32	0.00	0.0643	11.99	527.7	448.39	0.0620	523.7	9.426	19.58	10.32	1.42
	56.25	16.09	64.32	0.00	0.0643	12.00	528.0	448.68	0.0621	527.2	9.489	19.71	10.42	1.42
	57.23	16.12	64.32	0.00	0.0642	11.96	526.2	447.12	0.0621	525.3	9.455	19.64	10.37	1.42
	58.25	16.10	64.32	250.00	0.0644	12.00	527.8	448.48	0.0622	528.6	9.514	19.76	10.46	1.42
	59.23	16.10	64.32	0.00	0.0644	11.99	527.6	448.32	0.0623	526.6	9.479	19.69	10.41	1.42
	60.25	16.10	64.29	0.00	0.0644	12.00	527.9	448.80	0.0624	530.5	9.548	19.84	10.52	1.42
	61.25	16.10	64.29	0.00	0.0644	11.97	526.8	447.84	0.0624	528.1	9.506	19.75	10.45	1.42
	62.25	16.10	64.29	0.00	0.0643	11.99	527.6	448.47	0.0623	529.1	9.523	19.79	10.48	1.42
	63.23	16.12	64.29	0.00	0.0643	11.99	527.4	448.32	0.0626	529.4	9.530	19.80	10.49	1.42
	64.25	16.12	64.32	0.00	0.0644	11.99	527.5	448.31	0.0625	532.2	9.579	19.90	10.56	1.43
	65.25	16.12	64.32	0.00	0.0644	11.99	527.4	448.24	0.0625	531.0	9.559	19.86	10.53	1.42
	66.25	16.12	64.32	0.00	0.0643	11.99	527.4	448.19	0.0624	531.5	9.567	19.87	10.55	1.42
	67.25	16.10	64.30	0.00	0.0644	11.98	527.3	448.21	0.0626	532.5	9.585	19.92	10.57	1.42
	68.25	16.12	64.32	0.00	0.0643	11.99	527.5	448.25	0.0628	532.7	9.589	19.92	10.58	1.42
	69.25	16.13	64.32	0.00	0.0644	11.99	527.4	448.24	0.0629	534.3	9.618	19.98	10.63	1.42
	70.25	16.13	64.29	0.00	0.0645	11.99	527.7	448.65	0.0629	537.4	9.673	20.10	10.71	1.43
	74.83	16.12	64.32	0.00	0.0644	11.99	527.5	448.30	0.0629	536.3	9.654	20.05	10.68	1.42
	76.16	16.12	64.29	0.00	0.0644	12.00	527.8	448.70	0.0633	539.2	9.706	20.17	10.76	1.42
	76.16	16.13	64.29	0.00	0.0644	11.99	527.4	448.36	0.0632	538.9	9.700	20.16	10.75	1.42
	76.16	16.13	64.34	0.00	0.0644	11.99	527.4	448.06	0.0631	538.3	9.689	20.12	10.74	1.42
	76.16	16.13	64.29	0.00	0.0644	11.99	527.5	448.45	0.0631	537.8	9.681	20.12	10.72	1.42
	76.25	16.15	64.29	0.00	0.0644	11.99	527.3	448.37	0.0631	538.1	9.686	20.13	10.73	1.42
	77.25	16.15	64.29	0.00	0.0644	11.99	527.5	448.47	0.0631	539.0	9.703	20.17	10.76	1.42
	78.23	16.15	64.32	0.00	0.0644	11.99	527.6	448.37	0.0634	540.7	9.732	20.22	10.80	1.42
	79.25	16.15	64.29	0.00	0.0644	11.99	527.5	448.50	0.0635	542.0	9.757	20.28	10.84	1.42
	80.33	16.17	64.32	0.00	0.0643	11.99	527.5	448.36	0.0633	540.6	9.731	20.22	10.80	1.42
	81.25	16.15	64.32	0.00	0.0643	11.98	527.2	448.10	0.0634	541.0	9.739	20.23	10.81	1.42
	82.25	16.15	64.32	0.00	0.0644	11.99	527.5	448.34	0.0635	542.1	9.758	20.27	10.84	1.42
	83.25	16.15	64.32	0.00	0.0644	11.99	527.4	448.24	0.0634	542.2	9.759	20.27	10.85	1.42
	84.25	16.15	64.32	0.00	0.0643	11.98	527.2	448.09	0.0636	543.4	9.782	20.32	10.88	1.42
	85.25	16.17	64.29	0.00	0.0643	11.98	527.3	448.36	0.0636	544.1	9.795	20.36	10.90	1.42
	86.27	16.17	64.32	0.00	0.0644	11.99	527.4	448.29	0.0637	545.2	9.814	20.39	10.93	1.42
	87.25	16.17	64.29	0.00	0.0644	11.98	526.9	448.04	0.0636	544.8	9.806	20.38	10.92	1.42
	88.27	16.17	64.32	0.00	0.0643	11.99	527.4	448.30	0.0637	545.8	9.825	20.41	10.95	1.43
	89.25	16.17	64.29	0.00	0.0644	11.99	527.6	448.62	0.0642	548.4	9.870	20.52	11.02	1.42
	90.25	16.18	64.29	0.00	0.0644	11.98	527.1	448.23	0.0639	547.0	9.845	20.46	10.98	1.42
	91.23	16.18	64.29	0.00	0.0643	11.97	526.8	447.92	0.0638	547.3	9.851	20.48	10.99	1.42
	92.25	16.18	64.29	0.00	0.0643	11.97	526.9	448.01	0.0640	547.8	9.860	20.49	11.00	1.42
	93.23	16.20	64.30	0.00	0.0642	11.97	526.5	447.68	0.0640	548.2	9.868	20.51	11.02	1.42
	94.25	16.15	64.32	0.00	0.0642	11.97	526.7	447.62	0.0640	549.4	9.890	20.55	11.05	1.42
	95.31	16.18	64.32	0.00	0.0642	11.96	526.3	447.36	0.0641	549.8	9.896	20.56	11.06	1.42
	96.25	16.18	64.32	0.00	0.0643	11.97	526.7	447.66	0.0642	552.5	9.946	20.66	11.13	1.42
	97.25	16.20	64.32	0.00	0.0642	11.95	525.6	446.81	0.0641	549.6	9.894	20.56	11.05	1.42
	98.23	16.18	64.32	0.00	0.0642	11.96	526.1	447.19	0.0641	550.5	9.909	20.59	11.08	1.42
	99.25	16.20	64.32	0.00	0.0642	11.96	526.1	447.20	0.0641	551.4	9.925	20.62	11.10	1.42
	100.25	16.18	64.29	250.00	0.0642	11.97	526.6	447.80	0.0642	554.3	9.978	20.74	11.18	1.42
	101.25	16.20	64.27	0.00	0.0643	11.96	526.4	447.77	0.0644	553.8	9.968	20.73	11.17	1.42
	102.23	16.20	64.32	0.00	0.0642	11.96	526.2	447.36	0.0642	552.9	9.952	20.68	11.14	1.43
	103.25	16.20	64.29	0.00	0.0643	11.95	526.0	447.30	0.0643	553.0	9.955	20.69	11.15	1.42
	104.23	16.25	64.34	0.00	0.0643	11.96	526.1	447.15	0.0643	553.2	9.958	20.69	11.15	1.43
	105.25	16.22	64.29	0.00	0.0642	11.95	525.9	447.21	0.0644	554.3	9.977	20.74	11.18	1.43
	106.31	16.22	64.29	0.00	0.0642	11.96	526.1	447.38	0.0646	556.7	10.021	20.83	11.25	1.42
	107.25	16.20	64.32	0.00	0.0642	11.95	525.9	447.06	0.0645	555.9	10.006	20.79	11.22	1.42
	108.31	16.22	64.32	0.00	0.0643	11.96	526.2	447.31	0.0648	557.7	10.039	20.86	11.27	1.43
	109.25	16.23	64.29	0.00	0.0642	11.95	525.9	447.29	0.0648	557.9	10.041	20.88	11.28	1.42
	110.31	16.22	64.27	0.00	0.0643	11.95	525.6	447.15	0.0646	556.2	10.012	20.82	11.24	1.43
	111.25	16.20	64.32	0.00	0.0642	11.94	525.6	446.75	0.0645	557.1	10.027	20.84	11.26	1.43
	112.25	16.22	64.32	0.00	0.0642	11.94	525.5	446.71	0.0646	557.4	10.033	20.85	11.27	1.42
	113.23	16.22	64.32	0.00	0.0642	11.95	525.9	447.10	0.0648	560.6	10.090	20.97	11.35	1.43
	114.25	16.23	64.29	0.00	0.0642	11.94	525.4	446.87	0.0649	558.8	10.058	20.91	11.30	1.42
