Mar 13 2018 at 9:15:06
Frequency: 1.00Hz.
CO2
Zero:  Value:0.91  Date:May 19 2009 at 7:53:33 AM
Span:  Value:1.00  Date:May 19 2009 at 8:00:06 AM
H2O
Zero:  Value:0.77  Date:May 19 2009 at 7:54:01 AM
Span:  Value:1.01  Date:28 Jun 2004	 at 08:29:05	
Bright and clear, light wind
	Relative Time	Temperature	Pressure	Aux Input	CO2 Absorptance	CO2 mmol/m3	CO2 mg/m3	CO2 umol/mol	H2O Absorptance	H2O mmol/m3	H2O g/m3	H2O mmol/mol	H2O(°C)	Cooler Voltage
	0.20	23.64	65.91	0.00	0.0604	10.96	482.4	410.48	0.0520	407.5	7.335	15.26	7.00	1.46
	1.22	23.66	65.90	0.00	0.0603	10.95	481.8	410.00	0.0518	404.8	7.286	15.16	6.90	1.47
	2.20	23.66	65.86	0.00	0.0604	10.96	482.2	410.58	0.0520	406.8	7.322	15.24	6.97	1.46
	3.20	23.66	65.86	0.00	0.0602	10.92	480.4	409.08	0.0520	406.1	7.310	15.22	6.95	1.47
	4.28	23.66	65.91	0.00	0.0603	10.94	481.3	409.58	0.0520	407.9	7.342	15.27	7.01	1.47
	5.20	23.64	65.88	0.00	0.0603	10.93	480.8	409.23	0.0522	407.8	7.340	15.27	7.01	1.46
	6.28	23.66	65.88	0.00	0.0602	10.91	479.9	408.49	0.0525	412.8	7.431	15.46	7.19	1.46
	7.20	23.66	65.88	0.00	0.0601	10.90	479.6	408.28	0.0525	410.7	7.393	15.38	7.11	1.46
	8.28	23.66	65.91	0.00	0.0602	10.92	480.3	408.67	0.0522	409.4	7.369	15.33	7.07	1.46
	9.20	23.66	65.88	0.00	0.0602	10.91	480.0	408.64	0.0523	411.2	7.402	15.40	7.13	1.47
	10.22	23.66	65.88	0.00	0.0602	10.90	479.7	408.31	0.0525	411.8	7.412	15.42	7.15	1.46
	11.20	23.67	65.88	0.00	0.0601	10.90	479.6	408.32	0.0530	414.8	7.467	15.54	7.26	1.46
	12.22	23.66	65.88	0.00	0.0601	10.89	479.0	407.75	0.0531	418.2	7.528	15.66	7.38	1.46
	13.20	23.67	65.91	0.00	0.0601	10.89	479.1	407.72	0.0531	419.7	7.554	15.71	7.43	1.46
	14.22	23.65	65.88	0.00	0.0601	10.88	478.7	407.46	0.0537	424.8	7.646	15.91	7.60	1.46
	15.20	23.65	65.86	0.00	0.0600	10.87	478.5	407.45	0.0538	426.1	7.670	15.97	7.65	1.47
	16.22	23.66	65.88	0.00	0.0600	10.86	477.9	406.82	0.0541	428.4	7.711	16.05	7.73	1.46
	17.20	23.67	65.91	0.00	0.0600	10.86	477.9	406.66	0.0539	429.2	7.725	16.07	7.76	1.46
	18.22	23.67	65.88	0.00	0.0600	10.87	478.4	407.27	0.0540	426.9	7.684	15.99	7.68	1.46
	19.20	23.67	65.91	0.00	0.0600	10.86	477.9	406.65	0.0542	431.0	7.757	16.14	7.82	1.46
	20.22	23.67	65.90	0.00	0.0600	10.86	477.7	406.56	0.0542	430.5	7.749	16.12	7.80	1.46
	21.20	23.67	65.88	0.00	0.0600	10.87	478.1	407.04	0.0539	428.1	7.705	16.03	7.72	1.46
	22.20	23.67	65.88	0.00	0.0601	10.87	478.3	407.16	0.0538	427.7	7.699	16.02	7.71	1.46
	23.28	23.67	65.88	0.00	0.0600	10.86	477.8	406.75	0.0543	433.5	7.802	16.24	7.90	1.46
	24.20	23.67	65.88	0.00	0.0599	10.83	476.7	405.84	0.0544	432.0	7.777	16.18	7.85	1.46
	25.28	23.71	65.88	0.00	0.0600	10.84	477.2	406.27	0.0549	436.2	7.852	16.34	8.00	1.46
	26.20	23.69	65.88	0.00	0.0599	10.85	477.4	406.40	0.0547	438.0	7.884	16.41	8.06	1.46
	27.22	23.69	65.88	0.00	0.0600	10.85	477.5	406.50	0.0546	435.0	7.830	16.29	7.95	1.47
	28.20	23.69	65.88	0.00	0.0600	10.86	477.6	406.65	0.0547	435.8	7.844	16.32	7.98	1.46
	29.22	23.71	65.88	0.00	0.0599	10.85	477.4	406.45	0.0546	435.0	7.830	16.30	7.96	1.46
	30.20	23.69	65.86	0.00	0.0599	10.84	476.8	406.05	0.0554	439.3	7.907	16.46	8.10	1.46
	31.22	23.69	65.91	0.00	0.0599	10.83	476.6	405.62	0.0556	446.1	8.030	16.70	8.33	1.46
	32.20	23.67	65.88	0.00	0.0599	10.84	476.8	405.87	0.0552	443.1	7.976	16.60	8.23	1.46
	33.22	23.69	65.88	0.00	0.0599	10.84	476.9	405.99	0.0551	440.9	7.936	16.52	8.15	1.46
	34.20	23.69	65.88	0.00	0.0598	10.83	476.4	405.60	0.0554	447.0	8.047	16.75	8.36	1.46
	35.22	23.69	65.88	0.00	0.0598	10.83	476.3	405.52	0.0558	449.1	8.083	16.82	8.42	1.46
	36.20	23.69	65.88	0.00	0.0598	10.82	476.3	405.49	0.0556	448.5	8.073	16.80	8.40	1.46
	37.22	23.71	65.88	0.00	0.0598	10.82	476.1	405.38	0.0558	447.7	8.059	16.77	8.38	1.46
	38.20	23.69	65.86	0.00	0.0599	10.83	476.6	405.92	0.0557	446.5	8.037	16.73	8.34	1.46
	39.22	23.69	65.86	0.00	0.0598	10.83	476.4	405.75	0.0557	448.3	8.069	16.80	8.40	1.46
	40.28	23.71	65.88	0.00	0.0598	10.82	476.2	405.46	0.0558	448.3	8.070	16.80	8.40	1.46
	41.20	23.69	65.89	0.00	0.0599	10.82	476.1	405.33	0.0560	450.1	8.101	16.86	8.46	1.46
	42.28	23.71	65.88	0.00	0.0598	10.82	476.2	405.41	0.0559	450.4	8.108	16.87	8.47	1.46
	43.20	23.71	65.88	0.00	0.0598	10.82	476.1	405.36	0.0560	451.2	8.122	16.90	8.49	1.46
	44.22	23.69	65.91	0.00	0.0599	10.82	476.0	405.09	0.0560	451.7	8.131	16.92	8.51	1.46
	45.20	23.71	65.88	0.00	0.0598	10.82	476.0	405.23	0.0562	451.5	8.128	16.92	8.51	1.46
	46.22	23.69	65.88	0.00	0.0598	10.82	475.9	405.18	0.0563	455.3	8.195	17.05	8.63	1.46
	47.20	23.71	65.88	0.00	0.0598	10.81	475.7	405.02	0.0564	456.1	8.209	17.09	8.65	1.46
	48.22	23.71	65.88	0.00	0.0598	10.81	475.5	404.85	0.0565	456.4	8.216	17.10	8.66	1.46
	49.20	23.69	65.88	0.00	0.0598	10.81	475.5	404.81	0.0565	457.1	8.227	17.12	8.68	1.46
	50.22	23.73	65.88	0.00	0.0597	10.80	475.1	404.54	0.0571	464.1	8.354	17.39	8.91	1.46
	51.20	23.73	65.88	0.00	0.0598	10.80	475.0	404.48	0.0568	463.0	8.334	17.35	8.88	1.46
	52.22	23.73	65.88	0.00	0.0597	10.81	475.5	404.86	0.0566	458.8	8.259	17.19	8.74	1.46
	53.20	23.73	65.88	0.00	0.0598	10.80	475.3	404.68	0.0568	459.7	8.274	17.22	8.77	1.46
	54.22	23.73	65.88	0.00	0.0597	10.79	474.6	404.06	0.0574	465.4	8.377	17.43	8.95	1.46
	55.20	23.73	65.88	0.00	0.0597	10.80	475.1	404.51	0.0574	463.8	8.348	17.37	8.90	1.46
	56.22	23.73	65.88	0.00	0.0597	10.79	474.9	404.38	0.0571	464.4	8.359	17.40	8.92	1.46
	57.28	23.71	65.88	0.00	0.0597	10.78	474.3	403.84	0.0577	469.0	8.442	17.57	9.07	1.46
	58.22	23.71	65.88	0.00	0.0597	10.79	475.0	404.38	0.0574	466.5	8.398	17.48	8.99	1.46
	59.28	23.73	65.88	0.00	0.0597	10.78	474.3	403.82	0.0583	473.5	8.523	17.74	9.21	1.46
	60.20	23.73	65.88	0.00	0.0596	10.79	474.5	404.06	0.0576	471.2	8.481	17.65	9.14	1.46
	61.22	23.73	65.88	0.00	0.0597	10.79	474.7	404.18	0.0576	467.8	8.421	17.53	9.03	1.47
	62.20	23.73	65.88	0.00	0.0597	10.79	474.9	404.32	0.0578	470.5	8.469	17.63	9.12	1.46
	63.22	23.73	65.88	0.00	0.0597	10.79	474.6	404.14	0.0581	473.0	8.514	17.72	9.19	1.46
	64.20	23.73	65.90	0.00	0.0596	10.78	474.5	403.87	0.0581	474.6	8.543	17.77	9.24	1.46
	65.22	23.73	65.90	0.00	0.0596	10.78	474.4	403.81	0.0581	474.1	8.533	17.75	9.23	1.46
	66.20	23.74	65.88	0.00	0.0596	10.78	474.2	403.75	0.0583	475.7	8.563	17.82	9.28	1.46
	67.22	23.73	65.88	0.00	0.0597	10.78	474.3	403.85	0.0582	476.7	8.581	17.86	9.31	1.47
	68.20	23.74	65.88	0.00	0.0596	10.78	474.4	403.94	0.0582	475.6	8.561	17.82	9.28	1.46
	69.22	23.71	65.86	0.00	0.0597	10.79	474.5	404.19	0.0583	476.2	8.572	17.85	9.29	1.46
	70.20	23.72	65.88	0.00	0.0596	10.78	474.1	403.68	0.0584	477.8	8.601	17.90	9.34	1.46
	71.22	23.73	65.91	0.00	0.0596	10.78	474.2	403.58	0.0585	478.3	8.609	17.91	9.36	1.46
	72.20	23.73	65.88	0.00	0.0596	10.78	474.2	403.75	0.0584	479.2	8.626	17.95	9.39	1.46
	73.22	23.71	65.88	0.00	0.0596	10.78	474.1	403.66	0.0585	479.9	8.639	17.98	9.41	1.47
	74.28	23.73	65.88	0.00	0.0596	10.77	474.0	403.61	0.0587	481.8	8.672	18.05	9.47	1.46
	75.22	23.74	65.90	0.00	0.0597	10.78	474.4	403.80	0.0588	482.3	8.681	18.06	9.48	1.46
	76.28	23.74	65.88	0.00	0.0596	10.78	474.1	403.73	0.0589	483.5	8.703	18.12	9.52	1.46
	77.22	23.74	65.91	0.00	0.0596	10.77	474.1	403.52	0.0589	483.7	8.706	18.11	9.53	1.46
	78.22	23.72	65.88	0.00	0.0596	10.77	473.8	403.43	0.0590	484.7	8.725	18.16	9.56	1.46
	79.22	23.74	65.88	0.00	0.0596	10.77	474.0	403.59	0.0592	486.4	8.756	18.23	9.61	1.47
	80.22	23.74	65.88	0.00	0.0596	10.77	473.8	403.42	0.0595	487.9	8.783	18.28	9.66	1.46
	81.20	23.74	65.91	0.00	0.0596	10.77	473.9	403.35	0.0593	488.6	8.796	18.30	9.68	1.46
	82.22	23.74	65.90	0.00	0.0596	10.77	474.0	403.46	0.0593	488.9	8.800	18.31	9.69	1.46
	83.20	23.74	65.88	0.00	0.0596	10.76	473.6	403.30	0.0594	489.4	8.810	18.34	9.70	1.46
	84.22	23.72	65.86	0.00	0.0596	10.77	473.7	403.50	0.0596	490.8	8.834	18.39	9.74	1.47
	85.20	23.74	65.88	0.00	0.0596	10.77	473.8	403.45	0.0596	492.0	8.857	18.43	9.78	1.47
	86.22	23.74	65.86	0.00	0.0596	10.77	473.7	403.52	0.0597	492.6	8.867	18.46	9.80	1.46
	87.20	23.73	65.88	0.00	0.0595	10.76	473.2	402.95	0.0600	496.5	8.937	18.60	9.92	1.46
	88.22	23.76	65.86	0.00	0.0596	10.76	473.5	403.36	0.0599	494.6	8.903	18.54	9.86	1.46
	89.20	23.76	65.88	0.00	0.0595	10.75	472.9	402.67	0.0602	496.4	8.936	18.60	9.91	1.47
	90.22	23.76	65.88	0.00	0.0596	10.75	473.0	402.77	0.0602	499.0	8.982	18.70	9.99	1.47
	91.22	23.78	65.88	0.00	0.0595	10.75	473.1	402.89	0.0603	499.9	8.999	18.73	10.02	1.47
	92.22	23.76	65.93	0.00	0.0596	10.76	473.5	402.90	0.0601	496.4	8.936	18.59	9.91	1.46
	93.28	23.76	65.88	0.00	0.0595	10.76	473.5	403.20	0.0601	496.9	8.945	18.62	9.93	1.47
	94.22	23.76	65.86	0.00	0.0595	10.75	473.0	402.95	0.0604	500.5	9.010	18.76	10.04	1.46
	95.22	23.74	65.91	0.00	0.0595	10.75	473.0	402.59	0.0607	501.1	9.020	18.77	10.05	1.47
	96.20	23.76	65.91	0.00	0.0595	10.75	473.0	402.59	0.0607	501.6	9.028	18.79	10.07	1.47
	97.22	23.76	65.88	0.00	0.0595	10.74	472.7	402.52	0.0606	504.2	9.075	18.89	10.15	1.47
	98.20	23.78	65.88	0.00	0.0595	10.74	472.5	402.41	0.0607	503.4	9.060	18.86	10.12	1.47
	99.22	23.76	65.90	0.00	0.0595	10.74	472.5	402.25	0.0607	504.5	9.081	18.90	10.16	1.47
	100.20	23.74	65.88	0.00	0.0595	10.74	472.5	402.37	0.0609	505.1	9.092	18.93	10.17	1.47
	101.22	23.74	65.88	0.00	0.0595	10.76	473.3	403.03	0.0606	503.3	9.060	18.86	10.12	1.47
	102.20	23.78	65.88	0.00	0.0595	10.75	473.1	402.87	0.0607	505.3	9.095	18.93	10.18	1.47
	103.22	23.78	65.88	0.00	0.0595	10.75	472.9	402.70	0.0608	506.1	9.109	18.96	10.20	1.47
	104.20	23.78	65.88	0.00	0.0595	10.75	473.0	402.81	0.0609	505.6	9.102	18.95	10.19	1.47
	105.22	23.78	65.86	0.00	0.0595	10.75	472.8	402.82	0.0610	507.2	9.130	19.01	10.24	1.47
	106.20	23.78	65.86	0.00	0.0595	10.75	473.0	403.00	0.0609	507.2	9.130	19.01	10.24	1.47
	107.22	23.78	65.88	0.00	0.0595	10.75	473.0	402.78	0.0610	507.8	9.140	19.03	10.25	1.47
	108.22	23.78	65.86	0.00	0.0595	10.74	472.6	402.62	0.0612	510.4	9.187	19.13	10.33	1.47
	109.22	23.76	65.88	0.00	0.0595	10.74	472.8	402.59	0.0611	509.5	9.170	19.09	10.30	1.47
	110.22	23.78	65.88	0.00	0.0595	10.74	472.6	402.43	0.0612	509.9	9.178	19.11	10.32	1.47
	111.22	23.78	65.88	0.00	0.0595	10.74	472.5	402.42	0.0614	510.9	9.196	19.14	10.34	1.47
	112.22	23.74	65.88	0.00	0.0595	10.75	472.8	402.58	0.0613	511.0	9.199	19.15	10.35	1.47
	113.20	23.78	65.88	0.00	0.0595	10.74	472.6	402.45	0.0613	511.9	9.215	19.18	10.38	1.47
	114.22	23.80	65.88	0.00	0.0595	10.74	472.7	402.61	0.0613	511.6	9.208	19.17	10.37	1.47
	115.20	23.76	65.88	0.00	0.0595	10.74	472.6	402.44	0.0614	512.8	9.231	19.21	10.40	1.47
	116.22	23.80	65.88	0.00	0.0594	10.72	471.9	401.88	0.0616	515.7	9.282	19.32	10.48	1.47
	117.20	23.80	65.90	0.00	0.0595	10.73	472.2	402.06	0.0616	515.4	9.277	19.31	10.48	1.47
	118.22	23.80	65.88	0.00	0.0595	10.74	472.6	402.48	0.0616	515.2	9.273	19.30	10.47	1.47
	119.20	23.80	65.88	0.00	0.0595	10.75	472.8	402.68	0.0616	514.8	9.267	19.29	10.46	1.47
	120.22	23.80	65.88	0.00	0.0595	10.74	472.6	402.46	0.0617	515.9	9.286	19.33	10.49	1.47
	121.20	23.80	65.88	0.00	0.0595	10.74	472.6	402.48	0.0618	516.8	9.302	19.37	10.52	1.47
	122.22	23.80	65.88	0.00	0.0595	10.74	472.5	402.37	0.0618	517.8	9.320	19.40	10.55	1.47
	123.20	23.80	65.88	0.00	0.0594	10.73	472.3	402.25	0.0620	518.7	9.337	19.44	10.57	1.47
	124.22	23.83	65.86	0.00	0.0595	10.74	472.4	402.53	0.0619	519.0	9.343	19.46	10.58	1.47
	125.20	23.80	65.88	0.00	0.0595	10.74	472.7	402.56	0.0620	519.0	9.341	19.45	10.58	1.47
	126.22	23.80	65.88	0.00	0.0595	10.74	472.5	402.44	0.0621	520.4	9.368	19.50	10.62	1.47
	127.22	23.80	65.91	0.00	0.0595	10.74	472.6	402.32	0.0621	521.7	9.390	19.54	10.66	1.47
	128.22	23.80	65.88	0.00	0.0595	10.74	472.6	402.46	0.0622	522.4	9.403	19.58	10.68	1.47
	129.22	23.80	65.88	0.00	0.0595	10.74	472.7	402.58	0.0623	523.0	9.414	19.60	10.70	1.47
	130.22	23.82	65.90	0.00	0.0595	10.75	473.0	402.69	0.0623	523.4	9.420	19.61	10.71	1.47
	131.22	23.81	65.88	0.00	0.0595	10.75	473.0	402.86	0.0622	523.0	9.413	19.60	10.70	1.47
