Mar 13 2018 at 10:42:34
Frequency: 1.00Hz.
CO2
Zero:  Value:0.91  Date:May 19 2009 at 7:53:33 AM
Span:  Value:1.00  Date:May 19 2009 at 8:00:06 AM
H2O
Zero:  Value:0.77  Date:May 19 2009 at 7:54:01 AM
Span:  Value:1.01  Date:28 Jun 2004	 at 08:29:05	
Extreme cloud cover low light low temps
	Relative Time	Temperature	Pressure	Aux Input	CO2 Absorptance	CO2 mmol/m3	CO2 mg/m3	CO2 umol/mol	H2O Absorptance	H2O mmol/m3	H2O g/m3	H2O mmol/mol	H2O(°C)	Cooler Voltage
	0.64	21.21	65.90	0.00	0.0612	11.14	490.2	413.68	0.0570	461.6	8.308	17.14	8.70	1.38
	1.64	21.21	65.88	0.00	0.0612	11.12	489.3	413.07	0.0571	463.3	8.340	17.21	8.76	1.38
	2.64	21.21	65.88	0.00	0.0613	11.14	490.4	413.98	0.0570	462.0	8.317	17.16	8.72	1.38
	3.64	21.21	65.88	0.00	0.0612	11.13	489.7	413.40	0.0571	463.2	8.338	17.21	8.76	1.38
	4.62	21.21	65.88	0.00	0.0612	11.14	490.1	413.73	0.0571	463.2	8.337	17.20	8.76	1.38
	5.64	21.23	65.86	0.00	0.0611	11.13	489.8	413.67	0.0572	463.8	8.348	17.23	8.78	1.38
	6.62	21.21	65.86	0.00	0.0611	11.13	489.7	413.53	0.0572	464.3	8.357	17.25	8.79	1.38
	7.64	21.19	65.88	0.00	0.0611	11.13	489.7	413.41	0.0573	464.7	8.364	17.26	8.80	1.38
	8.62	21.16	65.86	0.00	0.0611	11.13	489.8	413.58	0.0573	465.3	8.375	17.29	8.82	1.38
	9.64	21.21	65.91	0.00	0.0611	11.12	489.5	413.09	0.0574	466.9	8.405	17.34	8.88	1.38
	10.62	21.19	65.86	0.00	0.0611	11.13	489.6	413.44	0.0573	466.5	8.397	17.33	8.86	1.38
	11.64	21.16	65.88	0.00	0.0611	11.12	489.4	413.06	0.0575	465.9	8.387	17.30	8.84	1.38
	12.62	21.19	65.88	0.00	0.0611	11.13	489.7	413.43	0.0575	467.3	8.412	17.36	8.89	1.38
	13.64	21.21	65.86	0.00	0.0611	11.13	489.6	413.47	0.0576	467.4	8.412	17.37	8.89	1.38
	14.70	21.21	65.88	0.00	0.0611	11.12	489.1	412.94	0.0575	467.8	8.420	17.38	8.90	1.38
	15.64	21.19	65.88	0.00	0.0611	11.13	489.6	413.29	0.0574	466.9	8.404	17.34	8.87	1.38
	16.64	21.21	65.88	0.00	0.0611	11.13	489.7	413.43	0.0575	467.9	8.422	17.38	8.91	1.38
	17.64	21.21	65.88	0.00	0.0612	11.13	489.7	413.46	0.0576	467.7	8.418	17.37	8.90	1.38
	18.64	21.21	65.88	0.00	0.0612	11.14	490.3	413.92	0.0576	468.7	8.437	17.41	8.93	1.38
	19.64	21.21	65.88	0.00	0.0612	11.16	491.2	414.72	0.0577	470.0	8.461	17.46	8.97	1.38
	20.64	21.19	65.88	0.00	0.0614	11.15	490.4	414.00	0.0578	469.8	8.456	17.45	8.96	1.38
	21.64	21.17	65.88	0.00	0.0613	11.19	492.5	415.72	0.0578	472.8	8.510	17.56	9.06	1.38
	22.64	21.17	65.89	0.00	0.0613	11.17	491.3	414.74	0.0578	470.9	8.476	17.49	9.00	1.38
	23.64	21.19	65.90	0.00	0.0612	11.15	490.8	414.20	0.0578	471.0	8.478	17.49	9.00	1.38
	24.64	21.19	65.88	0.00	0.0612	11.17	491.4	414.82	0.0578	471.7	8.490	17.52	9.02	1.38
	25.62	21.19	65.88	0.00	0.0613	11.16	491.0	414.48	0.0579	471.4	8.484	17.51	9.01	1.38
	26.64	21.19	65.91	0.00	0.0613	11.16	491.1	414.46	0.0579	471.6	8.489	17.51	9.02	1.38
	27.62	21.19	65.88	0.00	0.0614	11.17	491.4	414.82	0.0579	472.6	8.507	17.55	9.05	1.38
	28.64	21.17	65.89	0.00	0.0613	11.18	491.8	415.09	0.0582	473.6	8.525	17.59	9.08	1.38
	29.62	21.16	65.88	0.00	0.0614	11.18	491.7	415.07	0.0580	473.6	8.525	17.59	9.08	1.38
	30.64	21.21	65.88	0.00	0.0614	11.18	491.9	415.25	0.0580	473.6	8.525	17.59	9.09	1.38
	31.62	21.18	65.88	0.00	0.0614	11.17	491.7	415.05	0.0581	473.9	8.529	17.60	9.09	1.38
	32.64	21.19	65.89	0.00	0.0613	11.18	492.0	415.29	0.0581	474.8	8.547	17.64	9.12	1.38
	33.70	21.19	65.88	0.00	0.0614	11.19	492.2	415.51	0.0582	474.8	8.546	17.64	9.12	1.38
	34.64	21.19	65.86	0.00	0.0614	11.18	491.8	415.35	0.0581	474.7	8.545	17.64	9.12	1.38
	35.64	21.19	65.88	250.00	0.0613	11.18	492.1	415.39	0.0581	475.0	8.550	17.64	9.13	1.38
	36.64	21.19	65.93	0.00	0.0615	11.18	492.1	415.11	0.0584	474.8	8.547	17.62	9.12	1.38
	37.64	21.18	65.88	0.00	0.0614	11.22	493.6	416.66	0.0584	479.5	8.631	17.81	9.27	1.38
	38.64	21.16	65.86	0.00	0.0614	11.19	492.4	415.73	0.0583	476.4	8.576	17.70	9.17	1.38
	39.64	21.17	65.86	0.00	0.0614	11.19	492.2	415.63	0.0581	476.1	8.569	17.69	9.16	1.38
	40.64	21.17	65.88	0.00	0.0614	11.19	492.4	415.67	0.0583	476.6	8.578	17.70	9.18	1.38
	41.64	21.17	65.88	0.00	0.0614	11.21	493.3	416.40	0.0584	479.5	8.630	17.81	9.27	1.38
	42.64	21.19	65.88	0.00	0.0614	11.19	492.3	415.56	0.0583	476.4	8.575	17.69	9.17	1.38
	43.64	21.18	65.88	0.00	0.0614	11.19	492.3	415.59	0.0584	476.8	8.582	17.71	9.18	1.38
	44.64	21.19	65.88	0.00	0.0614	11.20	492.8	416.04	0.0584	478.2	8.608	17.76	9.23	1.38
	45.64	21.19	65.91	0.00	0.0615	11.20	492.9	415.93	0.0585	478.5	8.613	17.77	9.24	1.38
	46.64	21.19	65.91	0.00	0.0615	11.21	493.1	416.12	0.0584	478.5	8.612	17.76	9.24	1.38
	47.64	21.19	65.88	0.00	0.0615	11.21	493.3	416.45	0.0586	479.4	8.630	17.81	9.27	1.38
	48.62	21.19	65.88	0.00	0.0615	11.21	493.1	416.23	0.0584	478.5	8.613	17.77	9.24	1.38
	49.64	21.18	65.91	0.00	0.0615	11.20	492.9	415.94	0.0585	478.7	8.616	17.77	9.24	1.38
	50.62	21.16	65.86	0.00	0.0615	11.21	493.5	416.66	0.0585	479.1	8.624	17.80	9.26	1.38
	51.64	21.19	65.86	0.00	0.0615	11.21	493.4	416.68	0.0585	480.0	8.640	17.84	9.28	1.38
	52.62	21.18	65.88	0.00	0.0615	11.22	493.5	416.56	0.0586	480.0	8.640	17.83	9.28	1.38
	53.64	21.18	65.88	0.00	0.0615	11.22	493.6	416.70	0.0586	480.9	8.657	17.86	9.31	1.38
	54.62	21.19	65.88	0.00	0.0616	11.22	493.7	416.78	0.0587	480.2	8.644	17.84	9.29	1.38
	55.64	21.19	65.88	0.00	0.0615	11.22	493.5	416.61	0.0586	480.8	8.654	17.86	9.31	1.38
	56.70	21.21	65.88	0.00	0.0616	11.22	493.8	416.85	0.0587	480.9	8.657	17.87	9.31	1.38
	57.64	21.16	65.88	0.00	0.0615	11.23	493.9	416.90	0.0587	481.4	8.665	17.88	9.32	1.38
	58.64	21.19	65.88	0.00	0.0616	11.22	493.7	416.78	0.0588	481.8	8.672	17.90	9.34	1.38
	59.64	21.18	65.88	0.00	0.0615	11.22	493.9	416.91	0.0588	481.8	8.673	17.90	9.34	1.38
	60.64	21.18	65.88	0.00	0.0616	11.23	494.0	417.00	0.0588	482.2	8.680	17.91	9.35	1.38
	61.64	21.18	65.91	0.00	0.0615	11.23	494.2	417.00	0.0588	482.6	8.687	17.92	9.36	1.38
	62.64	21.18	65.88	0.00	0.0616	11.23	494.1	417.11	0.0588	482.7	8.689	17.93	9.37	1.38
	63.64	21.18	65.91	0.00	0.0616	11.24	494.4	417.20	0.0588	483.0	8.695	17.93	9.38	1.38
	64.64	21.18	65.88	0.00	0.0616	11.23	494.2	417.17	0.0589	483.0	8.694	17.94	9.38	1.38
	65.64	21.18	65.86	0.00	0.0617	11.23	494.3	417.44	0.0591	483.9	8.711	17.98	9.40	1.38
	66.64	21.18	65.88	0.00	0.0616	11.24	494.5	417.45	0.0589	483.7	8.707	17.97	9.40	1.38
	67.64	21.18	65.88	0.00	0.0616	11.25	495.0	417.83	0.0590	484.9	8.729	18.01	9.44	1.38
	68.64	21.18	65.88	0.00	0.0616	11.24	494.5	417.44	0.0589	483.9	8.710	17.97	9.40	1.38
	69.64	21.21	65.88	0.00	0.0617	11.25	494.9	417.81	0.0590	484.9	8.728	18.01	9.43	1.38
	70.64	21.16	65.88	0.00	0.0616	11.25	495.1	417.94	0.0590	485.1	8.732	18.02	9.44	1.38
	71.62	21.18	65.88	0.00	0.0617	11.25	495.2	418.00	0.0591	485.6	8.740	18.03	9.45	1.38
	72.64	21.18	65.88	0.00	0.0616	11.25	495.1	417.96	0.0590	485.6	8.741	18.04	9.46	1.38
	73.62	21.18	65.88	0.00	0.0617	11.25	495.0	417.83	0.0591	485.7	8.743	18.04	9.46	1.38
	74.64	21.18	65.88	0.00	0.0616	11.26	495.3	418.08	0.0591	486.4	8.755	18.07	9.48	1.38
	75.72	21.18	65.88	0.00	0.0618	11.27	496.0	418.73	0.0592	486.8	8.763	18.08	9.49	1.38
	76.64	21.18	65.86	0.00	0.0617	11.27	495.8	418.66	0.0592	486.5	8.757	18.08	9.48	1.38
	77.72	21.18	65.86	0.00	0.0618	11.27	495.9	418.73	0.0593	487.6	8.776	18.12	9.52	1.38
	78.64	21.18	65.88	0.00	0.0617	11.27	495.7	418.48	0.0592	487.0	8.767	18.09	9.50	1.38
	79.64	21.17	65.91	0.00	0.0617	11.27	495.8	418.34	0.0593	487.4	8.774	18.10	9.51	1.38
	80.64	21.16	65.88	0.00	0.0617	11.27	495.7	418.46	0.0593	488.0	8.784	18.12	9.53	1.38
	81.64	21.16	65.90	0.00	0.0618	11.28	496.2	418.70	0.0593	488.2	8.788	18.13	9.53	1.38
	82.64	21.18	65.88	0.00	0.0618	11.28	496.1	418.79	0.0593	488.2	8.787	18.13	9.53	1.38
	83.64	21.17	65.88	0.00	0.0618	11.29	496.8	419.37	0.0594	489.1	8.804	18.17	9.56	1.38
	84.64	21.18	65.88	0.00	0.0618	11.28	496.2	418.87	0.0593	488.2	8.787	18.13	9.53	1.38
	85.64	21.18	65.88	0.00	0.0618	11.28	496.5	419.12	0.0594	489.9	8.818	18.19	9.59	1.38
	86.64	21.18	65.88	0.00	0.0618	11.29	496.6	419.18	0.0594	489.2	8.805	18.17	9.56	1.38
	87.64	21.18	65.91	0.00	0.0618	11.29	496.5	418.99	0.0594	489.3	8.808	18.17	9.57	1.38
	88.64	21.18	65.88	0.00	0.0618	11.29	496.6	419.18	0.0594	489.2	8.806	18.17	9.57	1.38
	89.64	21.18	65.86	0.00	0.0618	11.30	497.0	419.70	0.0595	490.1	8.822	18.21	9.59	1.38
	90.64	21.16	65.86	0.00	0.0619	11.30	497.1	419.70	0.0595	490.8	8.834	18.23	9.61	1.38
	91.64	21.18	65.88	0.00	0.0619	11.30	497.1	419.67	0.0597	491.9	8.854	18.27	9.65	1.38
	92.64	21.18	65.88	0.00	0.0618	11.30	497.2	419.68	0.0595	490.6	8.830	18.22	9.61	1.38
	93.64	21.18	65.88	0.00	0.0619	11.30	497.4	419.86	0.0596	491.0	8.839	18.24	9.62	1.38
	94.62	21.18	65.88	0.00	0.0619	11.31	497.5	419.95	0.0595	491.3	8.844	18.25	9.63	1.38
	95.64	21.18	65.88	0.00	0.0620	11.31	497.7	420.15	0.0596	492.0	8.856	18.27	9.65	1.38
	96.64	21.18	65.90	0.00	0.0619	11.32	498.0	420.28	0.0596	491.5	8.848	18.25	9.64	1.38
	97.64	21.18	65.88	0.00	0.0619	11.32	498.0	420.41	0.0597	492.5	8.866	18.29	9.67	1.38
	98.64	21.18	65.88	0.00	0.0621	11.33	498.4	420.68	0.0598	493.5	8.883	18.33	9.69	1.38
	99.64	21.18	65.88	0.00	0.0619	11.32	498.1	420.43	0.0597	492.7	8.869	18.30	9.67	1.38
	100.64	21.18	65.88	0.00	0.0620	11.32	498.2	420.56	0.0597	493.0	8.874	18.31	9.68	1.38
	101.64	21.16	65.86	0.00	0.0620	11.33	498.6	421.01	0.0597	493.1	8.875	18.32	9.68	1.38
	102.64	21.14	65.86	0.00	0.0620	11.33	498.3	420.77	0.0598	493.5	8.883	18.33	9.69	1.38
	103.64	21.18	65.88	0.00	0.0620	11.34	499.0	421.26	0.0598	493.5	8.883	18.33	9.70	1.38
	104.64	21.18	65.88	0.00	0.0620	11.33	498.4	420.76	0.0598	493.6	8.884	18.33	9.70	1.38
	105.64	21.20	65.88	0.00	0.0620	11.33	498.7	421.01	0.0599	494.2	8.896	18.36	9.72	1.38
	106.64	21.18	65.88	0.00	0.0620	11.33	498.6	420.85	0.0599	494.0	8.893	18.35	9.71	1.38
	107.64	21.16	65.88	0.00	0.0619	11.33	498.4	420.69	0.0598	494.1	8.893	18.35	9.71	1.38
	108.64	21.18	65.88	0.00	0.0621	11.34	498.8	421.02	0.0599	494.6	8.903	18.37	9.73	1.38
	109.64	21.18	65.88	0.00	0.0621	11.37	500.2	422.26	0.0601	497.4	8.954	18.48	9.81	1.38
	110.64	21.18	65.88	0.00	0.0621	11.34	499.1	421.28	0.0599	495.1	8.912	18.39	9.74	1.38
	111.64	21.16	65.91	0.00	0.0620	11.34	499.1	421.16	0.0599	495.0	8.911	18.38	9.74	1.38
	112.64	21.16	65.88	0.00	0.0621	11.35	499.3	421.47	0.0600	495.5	8.919	18.40	9.75	1.38
	113.72	21.16	65.88	0.00	0.0621	11.35	499.6	421.70	0.0599	495.7	8.923	18.41	9.76	1.38
	114.64	21.16	65.88	0.00	0.0621	11.35	499.4	421.56	0.0600	496.1	8.929	18.42	9.77	1.38
	115.72	21.16	65.88	0.00	0.0621	11.36	499.7	421.82	0.0600	496.6	8.939	18.44	9.79	1.38
	116.64	21.16	65.88	0.00	0.0621	11.36	499.8	421.88	0.0600	496.7	8.941	18.45	9.79	1.38
	117.72	21.16	65.88	0.00	0.0622	11.38	500.5	422.49	0.0601	497.8	8.960	18.49	9.82	1.38
	118.64	21.16	65.88	0.00	0.0622	11.36	500.0	422.04	0.0601	497.1	8.947	18.46	9.80	1.39
	119.64	21.14	65.90	0.00	0.0622	11.37	500.1	422.01	0.0601	497.4	8.953	18.47	9.81	1.38
	120.64	21.18	65.86	0.00	0.0622	11.37	500.3	422.51	0.0602	497.5	8.955	18.48	9.82	1.38
	121.64	21.16	65.88	0.00	0.0622	11.37	500.4	422.37	0.0602	497.7	8.959	18.49	9.82	1.38
	122.62	21.16	65.88	0.00	0.0622	11.38	500.7	422.61	0.0602	498.4	8.971	18.51	9.84	1.38
