Mar 14 2018 at 7:18:59
Frequency: 1.00Hz.
CO2
Zero:  Value:0.91  Date:May 19 2009 at 7:53:33 AM
Span:  Value:1.00  Date:May 19 2009 at 8:00:06 AM
H2O
Zero:  Value:0.77  Date:May 19 2009 at 7:54:01 AM
Span:  Value:1.01  Date:28 Jun 2004	 at 08:29:05	
Low wind, high clouds cold and low light
	Relative Time	Temperature	Pressure	Aux Input	CO2 Absorptance	CO2 mmol/m3	CO2 mg/m3	CO2 umol/mol	H2O Absorptance	H2O mmol/m3	H2O g/m3	H2O mmol/mol	H2O(°C)	Cooler Voltage
	0.86	12.64	65.93	0.00	0.0609	11.07	487.1	398.94	0.0555	444.2	7.996	16.01	7.71	1.33
	1.86	12.66	65.93	0.00	0.0609	11.07	487.0	398.88	0.0555	445.4	8.017	16.05	7.75	1.33
	2.86	12.63	65.93	0.00	0.0609	11.06	486.9	398.72	0.0555	444.6	8.002	16.02	7.72	1.33
	3.86	12.63	65.91	0.00	0.0609	11.07	487.2	399.15	0.0554	444.1	7.993	16.01	7.70	1.33
	4.86	12.66	65.91	0.00	0.0609	11.07	486.9	398.94	0.0555	445.3	8.015	16.05	7.74	1.33
	5.86	12.67	65.93	0.00	0.0608	11.07	486.9	398.80	0.0555	445.3	8.015	16.05	7.74	1.33
	6.86	12.66	65.93	0.00	0.0609	11.06	486.8	398.71	0.0557	446.2	8.032	16.08	7.77	1.33
	7.86	12.66	65.93	0.00	0.0609	11.07	486.9	398.78	0.0557	447.4	8.053	16.12	7.81	1.33
	8.88	12.66	65.93	0.00	0.0609	11.06	486.9	398.76	0.0557	447.0	8.046	16.11	7.80	1.33
	9.86	12.66	65.91	0.00	0.0608	11.07	486.9	398.92	0.0557	447.0	8.046	16.11	7.80	1.33
	10.94	12.67	65.93	0.00	0.0609	11.07	487.0	398.87	0.0557	447.5	8.056	16.13	7.82	1.33
	11.86	12.67	65.91	0.00	0.0609	11.07	486.9	398.94	0.0558	447.9	8.062	16.15	7.83	1.33
	12.88	12.67	65.96	0.00	0.0609	11.07	486.9	398.70	0.0557	447.0	8.046	16.10	7.80	1.33
	13.86	12.67	65.93	0.00	0.0608	11.06	486.9	398.79	0.0557	448.1	8.066	16.15	7.83	1.33
	14.88	12.66	65.93	0.00	0.0609	11.07	487.1	398.96	0.0559	449.1	8.083	16.18	7.87	1.33
	15.86	12.67	65.96	0.00	0.0609	11.07	487.0	398.73	0.0559	449.4	8.089	16.19	7.88	1.33
	16.88	12.67	65.93	0.00	0.0609	11.07	487.0	398.93	0.0559	450.1	8.102	16.22	7.90	1.33
	17.86	12.67	65.96	0.00	0.0609	11.07	486.9	398.70	0.0559	449.8	8.096	16.20	7.89	1.33
	18.88	12.67	65.96	0.00	0.0609	11.06	486.8	398.59	0.0559	448.9	8.080	16.17	7.86	1.33
	19.86	12.69	65.91	0.00	0.0608	11.07	487.0	399.09	0.0558	449.6	8.093	16.21	7.89	1.33
	20.88	12.70	65.96	0.00	0.0609	11.07	487.3	399.02	0.0560	450.4	8.107	16.23	7.91	1.33
	21.86	12.70	65.93	0.00	0.0609	11.09	487.8	399.58	0.0560	452.0	8.135	16.29	7.96	1.33
	22.88	12.69	65.96	0.00	0.0609	11.08	487.6	399.23	0.0560	450.9	8.115	16.24	7.93	1.33
	23.86	12.70	65.93	0.00	0.0609	11.08	487.5	399.37	0.0560	451.0	8.117	16.25	7.93	1.33
	24.86	12.69	65.93	0.00	0.0610	11.09	487.8	399.59	0.0561	452.2	8.140	16.30	7.97	1.33
	25.86	12.69	65.96	0.00	0.0609	11.09	488.0	399.61	0.0560	452.7	8.148	16.31	7.98	1.33
	26.86	12.70	65.93	0.00	0.0610	11.09	487.7	399.56	0.0561	452.2	8.139	16.30	7.97	1.33
	27.86	12.70	65.93	0.00	0.0609	11.09	487.8	399.60	0.0561	452.1	8.137	16.29	7.97	1.33
	28.86	12.70	65.96	0.00	0.0609	11.08	487.6	399.32	0.0561	451.8	8.133	16.28	7.96	1.33
	29.86	12.70	65.96	0.00	0.0610	11.08	487.7	399.36	0.0561	452.1	8.138	16.29	7.97	1.33
	30.86	12.70	65.96	0.00	0.0610	11.09	487.9	399.51	0.0562	452.5	8.144	16.30	7.98	1.33
	31.86	12.72	65.93	0.00	0.0609	11.10	488.4	400.15	0.0562	453.7	8.166	16.35	8.02	1.33
	32.86	12.72	65.93	0.00	0.0610	11.10	488.2	399.95	0.0562	453.6	8.164	16.35	8.02	1.33
	33.86	12.74	65.93	0.00	0.0611	11.10	488.6	400.30	0.0563	453.9	8.170	16.36	8.03	1.33
	34.86	12.71	65.93	0.00	0.0610	11.10	488.3	400.01	0.0563	454.0	8.173	16.37	8.03	1.33
	35.94	12.72	65.96	0.00	0.0610	11.09	488.1	399.71	0.0563	453.5	8.162	16.34	8.01	1.33
	36.86	12.72	65.93	0.00	0.0611	11.11	488.7	400.38	0.0564	454.3	8.178	16.38	8.04	1.33
	37.88	12.75	65.93	0.00	0.0610	11.10	488.3	400.09	0.0563	454.2	8.175	16.37	8.04	1.33
	38.86	12.74	65.93	0.00	0.0610	11.10	488.3	400.09	0.0563	454.6	8.183	16.39	8.05	1.33
	39.88	12.74	65.93	0.00	0.0610	11.10	488.3	400.03	0.0563	454.6	8.182	16.39	8.05	1.33
	40.86	12.74	65.93	0.00	0.0610	11.10	488.3	400.07	0.0563	454.0	8.171	16.37	8.03	1.33
	41.88	12.74	65.91	0.00	0.0609	11.09	487.9	399.89	0.0562	453.1	8.156	16.34	8.00	1.33
	42.86	12.74	65.93	0.00	0.0611	11.10	488.4	400.16	0.0563	454.2	8.175	16.37	8.04	1.33
	43.88	12.74	65.93	0.00	0.0610	11.10	488.4	400.14	0.0564	454.5	8.181	16.38	8.05	1.33
	44.86	12.72	65.96	0.00	0.0610	11.11	488.8	400.28	0.0563	455.0	8.190	16.40	8.06	1.33
	45.88	12.75	65.91	0.00	0.0610	11.09	488.2	400.12	0.0563	454.2	8.176	16.38	8.04	1.33
	46.86	12.75	65.91	0.00	0.0610	11.10	488.6	400.47	0.0564	454.7	8.185	16.40	8.05	1.33
	47.88	12.77	65.93	0.00	0.0610	11.10	488.5	400.27	0.0563	454.5	8.181	16.39	8.05	1.33
	48.86	12.77	65.93	0.00	0.0611	11.10	488.5	400.29	0.0563	455.0	8.189	16.40	8.06	1.33
	49.88	12.74	65.93	0.00	0.0610	11.10	488.6	400.31	0.0564	455.2	8.194	16.41	8.07	1.33
	50.86	12.77	65.93	0.00	0.0610	11.10	488.5	400.23	0.0564	454.6	8.182	16.39	8.05	1.33
	51.88	12.77	65.96	0.00	0.0611	11.10	488.4	400.03	0.0564	454.4	8.178	16.38	8.04	1.33
	52.86	12.77	65.93	0.00	0.0610	11.10	488.5	400.28	0.0563	454.4	8.179	16.38	8.04	1.33
	53.86	12.77	65.91	0.00	0.0610	11.11	488.7	400.60	0.0564	454.4	8.179	16.39	8.05	1.33
	54.94	12.77	65.93	0.00	0.0611	11.11	488.9	400.57	0.0564	454.9	8.188	16.40	8.06	1.33
	55.86	12.77	65.93	0.00	0.0611	11.10	488.6	400.33	0.0564	454.9	8.188	16.40	8.06	1.33
	56.86	12.77	65.93	0.00	0.0611	11.10	488.4	400.19	0.0563	454.6	8.184	16.39	8.05	1.33
	57.86	12.75	65.93	0.00	0.0611	11.11	488.7	400.38	0.0564	454.6	8.183	16.39	8.05	1.33
	58.86	12.79	65.93	0.00	0.0610	11.10	488.5	400.29	0.0563	454.5	8.182	16.39	8.05	1.33
	59.86	12.79	65.93	0.00	0.0611	11.11	488.9	400.59	0.0564	455.6	8.200	16.43	8.08	1.33
	60.94	12.77	65.93	0.00	0.0610	11.11	488.7	400.40	0.0563	454.6	8.182	16.39	8.05	1.33
	61.86	12.77	65.93	0.00	0.0611	11.10	488.5	400.25	0.0564	454.5	8.181	16.39	8.05	1.33
	62.94	12.79	65.93	0.00	0.0610	11.09	488.1	399.98	0.0563	453.7	8.167	16.36	8.02	1.33
	63.86	12.79	65.93	0.00	0.0610	11.09	488.1	399.93	0.0563	453.4	8.160	16.35	8.01	1.33
	64.88	12.80	65.93	0.00	0.0611	11.10	488.5	400.33	0.0562	453.9	8.170	16.37	8.03	1.33
	65.86	12.82	65.96	0.00	0.0611	11.10	488.4	400.10	0.0563	453.9	8.170	16.36	8.03	1.33
	66.88	12.80	65.94	0.00	0.0610	11.09	488.0	399.86	0.0561	453.3	8.160	16.35	8.01	1.33
	67.86	12.80	65.93	0.00	0.0610	11.09	487.9	399.86	0.0563	453.5	8.163	16.35	8.02	1.33
	68.88	12.79	65.93	0.00	0.0610	11.09	488.1	399.94	0.0562	453.2	8.158	16.34	8.01	1.33
	69.86	12.80	65.94	0.00	0.0609	11.09	488.0	399.89	0.0562	452.7	8.149	16.32	7.99	1.33
	70.88	12.80	65.93	0.00	0.0611	11.10	488.3	400.19	0.0562	452.6	8.147	16.32	7.99	1.33
	71.86	12.80	65.96	0.00	0.0610	11.09	488.0	399.79	0.0561	452.7	8.149	16.32	7.99	1.33
	72.88	12.80	65.91	0.00	0.0610	11.10	488.2	400.23	0.0562	452.7	8.149	16.33	7.99	1.33
	73.86	12.82	65.96	0.00	0.0610	11.10	488.3	400.02	0.0562	452.4	8.144	16.31	7.98	1.33
	74.88	12.80	65.93	0.00	0.0610	11.09	488.1	399.99	0.0562	452.7	8.149	16.32	7.99	1.33
	75.86	12.80	65.93	0.00	0.0610	11.09	487.9	399.79	0.0562	452.4	8.143	16.31	7.98	1.33
	76.88	12.82	65.93	0.00	0.0610	11.09	487.8	399.75	0.0562	452.2	8.139	16.31	7.98	1.33
	77.86	12.82	65.93	0.00	0.0610	11.09	487.8	399.76	0.0561	452.0	8.136	16.30	7.97	1.33
	78.88	12.83	65.93	0.00	0.0609	11.08	487.7	399.69	0.0561	452.2	8.139	16.31	7.98	1.33
	79.86	12.82	65.93	0.00	0.0609	11.08	487.4	399.44	0.0561	452.3	8.141	16.31	7.98	1.33
	80.86	12.82	65.93	0.00	0.0610	11.08	487.4	399.45	0.0561	451.8	8.133	16.29	7.96	1.33
	81.86	12.83	65.93	0.00	0.0609	11.08	487.4	399.50	0.0561	451.7	8.130	16.29	7.96	1.33
	82.86	12.83	65.93	0.00	0.0609	11.07	487.0	399.11	0.0559	451.1	8.119	16.27	7.94	1.33
	83.88	12.83	65.96	0.00	0.0609	11.06	486.6	398.71	0.0560	450.7	8.113	16.25	7.93	1.33
	84.86	12.83	65.93	0.00	0.0608	11.06	486.9	399.01	0.0560	450.8	8.114	16.26	7.93	1.33
	85.94	12.82	65.93	0.00	0.0609	11.07	487.0	399.10	0.0560	450.6	8.111	16.25	7.93	1.33
	86.86	12.85	65.96	0.00	0.0609	11.06	486.7	398.74	0.0560	450.2	8.103	16.23	7.91	1.33
	87.94	12.85	65.93	0.00	0.0608	11.05	486.3	398.61	0.0559	449.6	8.092	16.21	7.89	1.33
	88.86	12.85	65.93	0.00	0.0608	11.05	486.3	398.58	0.0559	449.5	8.091	16.21	7.89	1.33
	89.88	12.87	65.93	0.00	0.0608	11.05	486.1	398.41	0.0559	449.2	8.085	16.20	7.88	1.33
	90.86	12.85	65.93	0.00	0.0608	11.04	486.0	398.29	0.0559	449.2	8.086	16.20	7.88	1.33
	91.88	12.85	65.93	0.00	0.0608	11.04	485.9	398.24	0.0559	449.1	8.084	16.20	7.88	1.33
	92.86	12.87	65.93	0.00	0.0608	11.03	485.5	397.96	0.0558	448.3	8.069	16.17	7.85	1.33
	93.88	12.85	65.96	0.00	0.0608	11.04	485.8	397.97	0.0558	448.2	8.068	16.16	7.85	1.33
	94.86	12.85	65.91	0.00	0.0607	11.04	485.6	398.15	0.0558	448.1	8.066	16.17	7.84	1.33
	95.88	12.87	65.96	0.00	0.0607	11.03	485.3	397.59	0.0557	448.0	8.064	16.15	7.84	1.33
	96.86	12.85	65.93	0.00	0.0607	11.02	485.0	397.54	0.0558	447.7	8.059	16.15	7.83	1.33
	97.88	12.87	65.96	0.00	0.0607	11.02	484.9	397.29	0.0557	447.9	8.061	16.15	7.84	1.33
	98.86	12.85	65.93	0.00	0.0607	11.02	484.7	397.31	0.0556	447.4	8.054	16.14	7.82	1.33
	99.88	12.87	65.93	0.00	0.0608	11.02	484.8	397.39	0.0557	447.2	8.049	16.13	7.81	1.33
	100.86	12.87	65.93	0.00	0.0606	11.02	484.8	397.41	0.0556	446.9	8.045	16.12	7.81	1.33
	101.88	12.88	65.93	0.00	0.0607	11.01	484.3	396.99	0.0557	447.0	8.045	16.12	7.81	1.33
	102.86	12.88	65.98	0.00	0.0606	11.00	484.0	396.50	0.0556	447.1	8.047	16.11	7.81	1.33
	103.88	12.88	65.93	0.00	0.0606	11.01	484.2	396.94	0.0556	446.5	8.037	16.10	7.79	1.33
	104.86	12.88	65.93	0.00	0.0606	10.99	483.6	396.44	0.0556	446.0	8.029	16.09	7.78	1.33
	105.88	12.88	65.93	0.00	0.0605	10.98	483.3	396.15	0.0555	445.8	8.024	16.08	7.77	1.33
	106.86	12.88	65.93	0.00	0.0606	10.98	483.0	395.94	0.0555	445.7	8.022	16.07	7.77	1.33
	107.88	12.87	65.93	0.00	0.0606	10.98	483.2	396.04	0.0555	445.7	8.022	16.07	7.77	1.33
	108.86	12.88	65.93	0.00	0.0605	10.97	482.6	395.57	0.0555	445.2	8.014	16.06	7.75	1.33
	109.86	12.88	65.93	0.00	0.0605	10.97	482.6	395.56	0.0555	445.3	8.016	16.06	7.75	1.33
	110.94	12.90	65.93	0.00	0.0604	10.96	482.3	395.40	0.0555	444.8	8.006	16.04	7.74	1.33
	111.86	12.90	65.96	0.00	0.0604	10.96	482.2	395.16	0.0554	444.3	7.998	16.02	7.72	1.33
	112.88	12.90	65.93	0.00	0.0604	10.95	481.7	394.86	0.0553	444.1	7.993	16.02	7.71	1.33
	113.86	12.90	65.93	0.00	0.0604	10.95	481.7	394.89	0.0554	444.5	8.000	16.03	7.73	1.33
	114.88	12.90	65.93	0.00	0.0603	10.93	481.1	394.42	0.0554	444.1	7.994	16.02	7.72	1.33
	115.86	12.91	65.96	0.00	0.0603	10.93	481.0	394.14	0.0554	443.6	7.985	15.99	7.70	1.33
	116.88	12.91	65.94	0.00	0.0603	10.93	480.9	394.22	0.0553	442.8	7.971	15.97	7.67	1.33
	117.86	12.91	65.91	0.00	0.0603	10.93	481.0	394.49	0.0552	442.3	7.961	15.96	7.66	1.33
	118.88	12.91	65.96	0.00	0.0601	10.90	479.8	393.16	0.0552	443.1	7.975	15.98	7.68	1.33
	119.86	12.90	65.93	0.00	0.0602	10.91	479.9	393.41	0.0553	442.5	7.965	15.96	7.66	1.33
	120.88	12.91	65.96	0.00	0.0602	10.90	479.7	393.08	0.0553	442.7	7.969	15.96	7.67	1.33
	121.86	12.93	65.93	0.00	0.0601	10.90	479.5	393.14	0.0552	441.5	7.947	15.93	7.63	1.33
	122.88	12.91	65.93	0.00	0.0601	10.88	478.9	392.59	0.0552	441.4	7.945	15.92	7.63	1.33
	123.86	12.91	65.93	0.00	0.0601	10.89	479.2	392.83	0.0550	441.3	7.943	15.92	7.62	1.33
	124.88	12.93	65.93	0.00	0.0601	10.88	478.8	392.55	0.0551	441.1	7.940	15.91	7.62	1.33
	125.86	12.93	65.96	0.00	0.0600	10.87	478.2	391.89	0.0551	440.9	7.936	15.90	7.61	1.33
	126.88	12.93	65.93	0.00	0.0600	10.86	477.6	391.59	0.0551	440.5	7.930	15.89	7.60	1.33
	127.86	12.93	65.93	0.00	0.0600	10.85	477.5	391.49	0.0551	439.9	7.918	15.87	7.58	1.33
	128.88	12.95	65.93	0.00	0.0599	10.84	477.0	391.11	0.0550	439.5	7.911	15.86	7.57	1.33
	129.94	12.95	65.93	0.00	0.0599	10.84	477.1	391.19	0.0550	439.3	7.908	15.85	7.56	1.33
	130.88	12.95	65.93	0.00	0.0598	10.83	476.4	390.61	0.0550	439.6	7.914	15.86	7.57	1.33
	131.86	12.95	65.93	0.00	0.0598	10.82	476.1	390.37	0.0550	439.1	7.903	15.84	7.55	1.33
	132.88	12.95	65.93	0.00	0.0598	10.81	475.7	390.01	0.0549	438.3	7.889	15.81	7.52	1.33
	133.94	12.95	65.94	0.00	0.0597	10.80	475.2	389.59	0.0549	437.7	7.878	15.79	7.50	1.33
	134.88	12.93	65.93	0.00	0.0597	10.79	474.5	389.06	0.0547	437.5	7.874	15.78	7.50	1.33
	135.88	12.95	65.93	0.00	0.0596	10.78	474.4	388.94	0.0547	437.1	7.869	15.77	7.49	1.33
	136.86	12.95	65.93	0.00	0.0596	10.78	474.2	388.80	0.0548	437.3	7.872	15.78	7.49	1.33
	137.88	12.95	65.93	0.00	0.0596	10.76	473.6	388.33	0.0547	436.8	7.862	15.76	7.47	1.33
	138.86	12.95	65.91	0.00	0.0595	10.76	473.5	388.36	0.0547	436.3	7.854	15.75	7.46	1.33
	139.88	12.98	65.96	0.00	0.0594	10.75	473.0	387.73	0.0546	436.2	7.851	15.73	7.46	1.33
	140.86	12.96	65.93	0.00	0.0595	10.74	472.5	387.45	0.0547	436.0	7.848	15.73	7.45	1.33
	141.88	12.96	65.93	0.00	0.0595	10.74	472.5	387.40	0.0547	435.3	7.836	15.71	7.43	1.33
	142.86	12.96	65.93	0.00	0.0594	10.73	472.0	387.01	0.0546	435.5	7.839	15.71	7.43	1.33
	143.88	12.96	65.94	0.00	0.0593	10.72	471.6	386.68	0.0546	435.1	7.832	15.70	7.42	1.33
	144.86	12.95	65.93	0.00	0.0594	10.71	471.2	386.35	0.0545	434.2	7.816	15.66	7.39	1.33
	145.88	12.96	65.93	0.00	0.0593	10.70	470.8	386.03	0.0545	433.9	7.810	15.65	7.38	1.33
	146.86	12.98	65.93	0.00	0.0593	10.69	470.5	385.77	0.0544	433.5	7.804	15.64	7.37	1.33
	147.88	12.96	65.93	0.00	0.0593	10.68	469.9	385.32	0.0544	433.1	7.796	15.62	7.35	1.33
	148.86	12.98	65.93	0.00	0.0592	10.67	469.6	385.07	0.0544	433.1	7.796	15.63	7.35	1.33
	149.88	12.98	65.96	0.00	0.0591	10.67	469.3	384.69	0.0543	432.4	7.784	15.60	7.33	1.33
	150.86	12.96	65.93	0.00	0.0591	10.65	468.7	384.35	0.0543	432.1	7.777	15.59	7.32	1.33
	151.88	12.98	65.93	0.00	0.0591	10.65	468.5	384.17	0.0543	432.2	7.780	15.59	7.32	1.33
	152.86	12.99	65.96	0.00	0.0590	10.63	467.9	383.56	0.0542	431.5	7.766	15.56	7.30	1.33
	153.88	12.98	65.91	0.00	0.0590	10.63	467.8	383.68	0.0542	430.9	7.756	15.55	7.28	1.33
	154.86	12.99	65.93	0.00	0.0589	10.61	467.1	383.00	0.0541	430.6	7.751	15.54	7.27	1.33
	155.88	12.99	65.93	0.00	0.0589	10.61	467.0	382.96	0.0541	430.5	7.750	15.53	7.27	1.33
	156.86	13.01	65.93	0.00	0.0589	10.60	466.5	382.59	0.0542	430.1	7.742	15.52	7.25	1.33
	157.88	12.98	65.91	0.00	0.0588	10.58	465.7	381.98	0.0540	429.8	7.736	15.51	7.24	1.33
	158.88	12.98	65.96	0.00	0.0587	10.58	465.3	381.40	0.0540	428.9	7.721	15.47	7.21	1.33
	159.88	12.99	65.93	0.00	0.0587	10.57	464.9	381.21	0.0540	428.4	7.712	15.46	7.19	1.33
	160.88	12.99	65.93	0.00	0.0587	10.56	464.7	381.05	0.0539	428.2	7.707	15.45	7.19	1.33
	161.88	12.99	65.89	0.00	0.0586	10.55	464.1	380.86	0.0539	427.3	7.692	15.43	7.16	1.33
	162.88	12.99	65.93	0.00	0.0586	10.54	463.8	380.32	0.0538	427.1	7.687	15.41	7.15	1.33
	163.86	12.99	65.96	0.00	0.0586	10.54	463.7	380.07	0.0538	426.7	7.681	15.39	7.14	1.33
	164.88	12.99	65.96	0.00	0.0585	10.52	462.8	379.40	0.0537	426.4	7.676	15.38	7.13	1.33
	165.86	13.01	65.96	0.00	0.0585	10.51	462.2	378.94	0.0537	426.0	7.668	15.37	7.11	1.33
	166.88	13.01	65.93	0.00	0.0584	10.50	461.9	378.80	0.0537	425.5	7.659	15.35	7.10	1.33
	167.86	13.03	65.93	0.00	0.0584	10.49	461.4	378.40	0.0536	424.8	7.646	15.33	7.07	1.33
	168.88	13.01	65.93	0.00	0.0584	10.48	461.1	378.16	0.0536	424.4	7.638	15.31	7.06	1.33
	169.86	13.03	65.93	0.00	0.0583	10.46	460.4	377.57	0.0535	423.9	7.630	15.30	7.04	1.33
	170.88	13.01	65.93	0.00	0.0582	10.45	459.9	377.15	0.0535	423.8	7.629	15.29	7.04	1.33
	171.86	13.03	65.93	0.00	0.0581	10.43	459.0	376.43	0.0534	423.0	7.614	15.26	7.01	1.33
	172.88	13.01	65.93	0.00	0.0582	10.44	459.5	376.79	0.0535	422.7	7.609	15.25	7.00	1.33
	173.86	13.03	65.93	0.00	0.0581	10.43	459.0	376.48	0.0534	422.4	7.603	15.24	6.99	1.33
	174.88	13.03	65.93	0.00	0.0580	10.41	458.2	375.81	0.0533	421.8	7.593	15.22	6.97	1.33
	175.86	13.01	65.93	0.00	0.0580	10.40	457.6	375.26	0.0533	422.1	7.598	15.23	6.98	1.33
	176.88	13.03	65.93	0.00	0.0580	10.38	456.8	374.66	0.0533	421.3	7.584	15.20	6.95	1.33
	177.86	13.01	65.93	0.00	0.0578	10.37	456.4	374.26	0.0533	421.5	7.587	15.21	6.96	1.33
	178.88	13.04	65.93	0.00	0.0578	10.36	455.7	373.74	0.0532	420.3	7.566	15.17	6.92	1.33
	179.86	13.04	65.96	0.00	0.0577	10.34	454.9	372.94	0.0532	419.7	7.554	15.14	6.90	1.33
	180.88	13.06	65.93	0.00	0.0577	10.33	454.6	372.86	0.0531	418.8	7.539	15.12	6.87	1.33
	181.86	13.04	65.93	0.00	0.0576	10.32	454.1	372.45	0.0530	418.8	7.539	15.11	6.87	1.33
	182.88	13.04	65.91	0.00	0.0576	10.31	453.7	372.21	0.0530	418.0	7.525	15.09	6.84	1.33
	183.94	13.06	65.93	0.00	0.0576	10.30	453.1	371.61	0.0530	417.4	7.513	15.06	6.82	1.33
	184.88	13.06	65.93	0.00	0.0575	10.29	452.6	371.20	0.0529	417.0	7.506	15.05	6.80	1.33
	185.94	13.04	65.96	0.00	0.0574	10.27	451.9	370.49	0.0529	416.4	7.495	15.02	6.78	1.33
	186.88	13.06	65.93	0.00	0.0574	10.27	451.7	370.49	0.0528	415.4	7.477	14.99	6.75	1.33
	187.88	13.06	65.93	0.00	0.0573	10.25	451.2	370.06	0.0526	415.2	7.474	14.99	6.74	1.33
	188.86	13.06	65.96	0.00	0.0574	10.24	450.6	369.43	0.0528	415.2	7.473	14.98	6.74	1.33
	189.88	13.06	65.93	0.00	0.0573	10.24	450.4	369.45	0.0526	414.2	7.456	14.95	6.71	1.33
	190.86	13.06	65.91	0.00	0.0573	10.23	450.2	369.40	0.0527	413.7	7.447	14.94	6.69	1.33
	191.88	13.06	65.93	0.00	0.0572	10.22	449.8	368.96	0.0526	413.5	7.443	14.92	6.68	1.33
	192.86	13.07	65.93	0.00	0.0572	10.21	449.4	368.61	0.0525	413.1	7.436	14.91	6.67	1.33
	193.88	13.08	65.93	0.00	0.0571	10.20	448.9	368.19	0.0524	412.8	7.430	14.90	6.66	1.34
	194.86	13.08	65.98	0.00	0.0570	10.19	448.4	367.52	0.0525	412.2	7.420	14.87	6.64	1.33
	195.88	13.08	65.93	0.00	0.0571	10.18	448.0	367.52	0.0525	411.9	7.413	14.86	6.62	1.33
	196.86	13.06	65.93	0.00	0.0570	10.17	447.7	367.21	0.0524	411.4	7.404	14.85	6.61	1.33
	197.88	13.08	65.93	0.00	0.0570	10.16	447.2	366.79	0.0524	411.8	7.413	14.86	6.62	1.33
	198.86	13.09	65.96	0.00	0.0569	10.15	446.8	366.34	0.0523	410.7	7.393	14.82	6.58	1.33
	199.88	13.09	65.93	0.00	0.0569	10.15	446.6	366.32	0.0523	410.5	7.389	14.82	6.58	1.33
	200.86	13.08	65.93	0.00	0.0569	10.14	446.0	365.80	0.0523	410.0	7.380	14.80	6.56	1.33
	201.88	13.09	65.93	0.00	0.0567	10.12	445.3	365.25	0.0522	409.5	7.371	14.78	6.54	1.33
	202.86	13.09	65.93	0.00	0.0567	10.11	444.9	364.96	0.0521	409.0	7.361	14.76	6.52	1.33
	203.88	13.11	65.93	0.00	0.0566	10.10	444.4	364.58	0.0521	408.7	7.357	14.75	6.51	1.34
	204.94	13.08	65.93	0.00	0.0566	10.10	444.3	364.48	0.0520	408.1	7.345	14.73	6.49	1.33
	205.88	13.09	65.94	0.00	0.0566	10.09	443.9	364.09	0.0520	407.7	7.338	14.71	6.48	1.33
	206.94	13.06	65.93	0.00	0.0566	10.08	443.4	363.73	0.0520	407.3	7.331	14.70	6.46	1.33
	207.88	13.11	65.93	0.00	0.0565	10.07	442.9	363.34	0.0519	406.6	7.319	14.68	6.44	1.33
	208.86	13.09	65.93	0.00	0.0565	10.07	442.9	363.29	0.0519	406.4	7.316	14.67	6.43	1.33
	209.88	13.09	65.93	0.00	0.0565	10.05	442.3	362.81	0.0519	405.9	7.306	14.65	6.41	1.33
	210.94	13.09	65.93	0.00	0.0564	10.05	442.1	362.67	0.0519	406.2	7.311	14.66	6.42	1.33
	211.88	13.11	65.93	0.00	0.0564	10.04	441.6	362.28	0.0519	406.1	7.310	14.66	6.42	1.33
	212.88	13.11	65.93	0.00	0.0564	10.03	441.3	362.03	0.0519	405.7	7.302	14.64	6.41	1.33
	213.88	13.11	65.93	0.00	0.0563	10.02	441.0	361.78	0.0518	404.5	7.282	14.60	6.37	1.33
	214.86	13.09	65.91	0.00	0.0562	10.00	440.0	361.06	0.0517	404.1	7.274	14.59	6.35	1.33
	215.86	13.09	65.93	0.00	0.0561	9.98	439.3	360.38	0.0517	403.8	7.268	14.57	6.34	1.33
	216.88	13.12	65.93	0.00	0.0560	9.97	438.7	359.92	0.0516	404.5	7.281	14.60	6.36	1.34
	217.86	13.12	65.93	0.00	0.0561	9.95	438.0	359.33	0.0516	403.2	7.257	14.55	6.32	1.33
	218.88	13.11	65.93	0.00	0.0560	9.95	437.7	359.06	0.0516	403.2	7.257	14.55	6.32	1.33
	219.86	13.12	65.93	0.00	0.0559	9.94	437.3	358.78	0.0515	402.0	7.237	14.51	6.28	1.33
