Mar 14 2018 at 7:14:40
Frequency: 1.00Hz.
CO2
Zero:  Value:0.91  Date:May 19 2009 at 7:53:33 AM
Span:  Value:1.00  Date:May 19 2009 at 8:00:06 AM
H2O
Zero:  Value:0.77  Date:May 19 2009 at 7:54:01 AM
Span:  Value:1.01  Date:28 Jun 2004	 at 08:29:05	
Low wind, high clouds cold and low light
	Relative Time	Temperature	Pressure	Aux Input	CO2 Absorptance	CO2 mmol/m3	CO2 mg/m3	CO2 umol/mol	H2O Absorptance	H2O mmol/m3	H2O g/m3	H2O mmol/mol	H2O(°C)	Cooler Voltage
	0.78	11.98	65.93	0.00	0.0617	11.25	494.8	404.31	0.0511	397.6	7.157	14.29	6.06	1.32
	1.78	11.97	65.93	0.00	0.0617	11.25	494.9	404.36	0.0513	398.5	7.172	14.33	6.09	1.32
	2.78	12.00	65.93	0.00	0.0616	11.24	494.6	404.19	0.0514	400.0	7.200	14.38	6.15	1.32
	3.77	12.00	65.93	0.00	0.0616	11.23	494.3	403.91	0.0514	402.7	7.249	14.48	6.24	1.32
	4.78	12.01	65.93	0.00	0.0616	11.23	494.1	403.79	0.0519	404.8	7.287	14.56	6.32	1.32
	5.77	11.98	65.93	0.00	0.0616	11.22	493.8	403.50	0.0520	407.5	7.335	14.65	6.41	1.32
	6.78	12.01	65.93	0.00	0.0616	11.22	493.7	403.43	0.0521	408.7	7.357	14.70	6.46	1.32
	7.77	12.00	65.93	0.00	0.0616	11.22	493.9	403.56	0.0521	408.5	7.353	14.69	6.45	1.32
	8.78	12.01	65.93	0.00	0.0616	11.22	493.9	403.61	0.0523	409.0	7.362	14.71	6.47	1.32
	9.86	12.01	65.96	0.00	0.0615	11.22	493.7	403.28	0.0523	410.3	7.385	14.75	6.51	1.32
	10.78	12.01	65.93	0.00	0.0615	11.23	494.0	403.69	0.0523	408.8	7.359	14.70	6.46	1.32
	11.78	12.01	65.93	0.00	0.0615	11.22	493.6	403.41	0.0524	411.2	7.402	14.79	6.55	1.32
	12.78	12.01	65.93	0.00	0.0615	11.22	493.5	403.28	0.0526	412.0	7.416	14.81	6.58	1.32
	13.78	12.03	65.93	0.00	0.0614	11.22	493.6	403.41	0.0528	413.1	7.436	14.86	6.62	1.32
	14.78	12.03	65.93	0.00	0.0616	11.21	493.4	403.27	0.0526	413.4	7.440	14.86	6.62	1.32
	15.78	12.01	65.93	0.00	0.0615	11.21	493.0	402.92	0.0529	417.0	7.505	14.99	6.75	1.32
	16.78	12.03	65.91	0.00	0.0615	11.20	492.9	402.99	0.0531	418.6	7.535	15.06	6.81	1.32
	17.78	12.03	65.93	0.00	0.0615	11.20	492.9	402.84	0.0530	417.7	7.518	15.02	6.77	1.32
	18.78	12.06	65.93	0.00	0.0615	11.20	492.9	402.90	0.0532	418.1	7.526	15.04	6.79	1.32
	19.78	12.04	65.93	0.00	0.0614	11.20	492.9	402.85	0.0534	419.2	7.545	15.07	6.83	1.32
	20.78	12.04	65.93	0.00	0.0614	11.20	492.6	402.63	0.0533	421.3	7.583	15.15	6.90	1.32
	21.78	12.06	65.93	0.00	0.0614	11.20	492.6	402.65	0.0534	420.6	7.570	15.13	6.88	1.32
	22.78	12.04	65.96	0.00	0.0614	11.19	492.3	402.23	0.0536	423.2	7.618	15.21	6.97	1.32
	23.78	12.02	65.96	0.00	0.0614	11.18	492.0	401.89	0.0535	426.2	7.672	15.32	7.07	1.32
	24.78	12.04	65.93	0.00	0.0614	11.20	492.6	402.64	0.0535	422.2	7.599	15.18	6.93	1.32
	25.78	12.04	65.96	0.00	0.0614	11.18	492.0	402.00	0.0538	425.9	7.667	15.31	7.06	1.32
	26.78	12.06	65.93	0.00	0.0614	11.18	492.1	402.19	0.0537	425.4	7.658	15.30	7.04	1.32
	27.78	12.06	65.93	0.00	0.0613	11.18	492.0	402.13	0.0539	426.9	7.684	15.35	7.09	1.32
	28.78	12.06	65.93	0.00	0.0614	11.16	491.1	401.42	0.0543	431.3	7.763	15.51	7.24	1.32
	29.78	12.06	65.93	0.00	0.0613	11.18	491.8	402.00	0.0539	428.2	7.708	15.40	7.14	1.32
	30.86	12.06	65.93	0.00	0.0614	11.17	491.5	401.72	0.0541	429.4	7.730	15.44	7.18	1.32
	31.78	12.08	65.93	0.00	0.0614	11.18	491.9	402.05	0.0540	428.6	7.714	15.41	7.15	1.32
	32.77	12.09	65.93	0.00	0.0613	11.17	491.3	401.64	0.0542	431.7	7.771	15.53	7.26	1.32
	33.78	12.06	65.96	0.00	0.0613	11.16	490.9	401.05	0.0545	434.1	7.814	15.61	7.34	1.32
	34.86	12.08	65.93	0.00	0.0613	11.16	491.2	401.53	0.0542	431.9	7.774	15.53	7.27	1.32
	35.78	12.09	65.93	0.00	0.0613	11.16	491.2	401.51	0.0545	432.8	7.790	15.57	7.29	1.32
	36.86	12.08	65.93	0.00	0.0613	11.17	491.3	401.57	0.0544	432.3	7.781	15.55	7.28	1.32
	37.78	12.08	65.93	0.00	0.0613	11.16	490.8	401.20	0.0547	435.8	7.844	15.67	7.40	1.32
	38.78	12.08	65.93	0.00	0.0612	11.15	490.8	401.16	0.0547	436.0	7.848	15.68	7.40	1.32
	39.78	12.06	65.93	0.00	0.0612	11.15	490.5	400.93	0.0549	435.6	7.841	15.67	7.39	1.32
	40.78	12.09	65.93	0.00	0.0612	11.15	490.7	401.15	0.0546	435.3	7.835	15.66	7.38	1.32
	41.78	12.09	65.93	0.00	0.0611	11.13	489.8	400.38	0.0549	439.2	7.905	15.80	7.51	1.32
	42.78	12.09	65.96	0.00	0.0611	11.14	490.1	400.48	0.0550	439.1	7.904	15.79	7.51	1.32
	43.78	12.09	65.93	0.00	0.0612	11.13	489.9	400.48	0.0551	439.7	7.915	15.82	7.53	1.32
	44.78	12.11	65.93	0.00	0.0612	11.14	490.2	400.70	0.0548	437.9	7.883	15.75	7.47	1.32
	45.78	12.11	65.93	0.00	0.0611	11.13	489.8	400.42	0.0550	439.4	7.909	15.81	7.52	1.32
	46.78	12.11	65.93	0.00	0.0612	11.13	489.6	400.28	0.0551	440.0	7.920	15.83	7.54	1.32
	47.78	12.11	65.93	0.00	0.0612	11.13	489.6	400.23	0.0551	440.7	7.932	15.85	7.56	1.32
	48.78	12.11	65.93	0.00	0.0611	11.13	489.8	400.38	0.0548	439.6	7.913	15.81	7.53	1.32
	49.78	12.11	65.96	0.00	0.0611	11.13	489.6	400.11	0.0550	440.1	7.922	15.82	7.54	1.32
	50.78	12.12	65.96	0.00	0.0611	11.12	489.3	399.86	0.0552	441.2	7.941	15.86	7.58	1.32
	51.78	12.12	65.93	0.00	0.0611	11.12	489.1	399.83	0.0551	441.8	7.953	15.89	7.60	1.32
	52.78	12.12	65.93	0.00	0.0611	11.12	489.4	400.13	0.0551	440.4	7.927	15.84	7.55	1.32
	53.78	12.12	65.93	0.00	0.0611	11.11	489.0	399.77	0.0553	442.8	7.971	15.93	7.63	1.32
	54.78	12.12	65.93	0.00	0.0610	11.11	489.0	399.79	0.0553	441.4	7.946	15.88	7.59	1.32
	55.78	12.14	65.96	0.00	0.0611	11.10	488.2	399.03	0.0555	446.4	8.034	16.05	7.75	1.32
	56.78	12.12	65.93	0.00	0.0611	11.11	489.0	399.78	0.0553	441.6	7.949	15.89	7.59	1.32
	57.78	12.14	65.93	0.00	0.0610	11.11	488.8	399.60	0.0553	442.9	7.973	15.93	7.64	1.32
	58.78	12.14	65.93	0.00	0.0610	11.10	488.5	399.36	0.0555	444.5	8.001	15.99	7.69	1.32
	59.86	12.16	65.96	0.00	0.0610	11.10	488.3	399.05	0.0554	444.9	8.009	16.00	7.70	1.32
	60.78	12.14	65.96	0.00	0.0610	11.09	488.1	398.91	0.0556	445.6	8.021	16.02	7.73	1.32
	61.86	12.14	65.96	0.00	0.0610	11.08	487.7	398.60	0.0557	447.0	8.047	16.08	7.77	1.32
	62.78	12.14	65.93	0.00	0.0610	11.09	487.7	398.77	0.0556	445.5	8.019	16.03	7.72	1.32
	63.86	12.13	65.91	0.00	0.0609	11.09	487.8	398.97	0.0555	445.2	8.014	16.02	7.71	1.32
	64.78	12.16	65.93	0.00	0.0610	11.09	488.0	398.98	0.0555	444.5	8.001	15.99	7.69	1.32
	65.78	12.16	65.96	0.00	0.0610	11.08	487.7	398.57	0.0554	445.5	8.019	16.02	7.72	1.32
	66.78	12.16	65.93	0.00	0.0609	11.08	487.7	398.74	0.0555	445.6	8.021	16.03	7.73	1.32
	67.78	12.16	65.93	0.00	0.0610	11.08	487.4	398.48	0.0557	446.9	8.045	16.08	7.77	1.32
	68.78	12.16	65.93	0.00	0.0609	11.07	487.3	398.42	0.0557	446.5	8.038	16.06	7.76	1.32
	69.78	12.17	65.93	0.00	0.0609	11.07	486.9	398.17	0.0557	448.0	8.063	16.12	7.80	1.32
	70.78	12.17	65.93	0.00	0.0609	11.07	487.1	398.33	0.0557	446.8	8.042	16.07	7.77	1.32
	71.78	12.17	65.93	0.00	0.0608	11.06	486.7	397.98	0.0558	447.9	8.063	16.12	7.80	1.32
	72.78	12.17	65.93	0.00	0.0608	11.06	486.8	398.03	0.0556	446.9	8.045	16.08	7.77	1.32
	73.78	12.19	65.93	0.00	0.0609	11.07	486.9	398.19	0.0556	445.2	8.014	16.02	7.72	1.32
	74.78	12.19	65.93	0.00	0.0609	11.05	486.4	397.72	0.0557	447.7	8.059	16.11	7.80	1.32
	75.78	12.17	65.93	0.00	0.0608	11.06	486.7	397.95	0.0556	446.8	8.043	16.08	7.77	1.32
	76.78	12.16	65.94	0.00	0.0608	11.05	486.2	397.49	0.0558	448.9	8.081	16.15	7.84	1.32
	77.78	12.19	65.93	0.00	0.0608	11.05	486.2	397.58	0.0559	448.6	8.075	16.14	7.83	1.32
	78.78	12.19	65.93	0.00	0.0608	11.04	485.9	397.31	0.0559	449.3	8.088	16.17	7.85	1.32
	79.78	12.19	65.91	0.00	0.0608	11.04	485.9	397.53	0.0558	448.6	8.074	16.15	7.83	1.32
	80.78	12.19	65.93	0.00	0.0608	11.04	485.8	397.24	0.0558	449.0	8.082	16.16	7.84	1.32
	81.78	12.19	65.93	0.00	0.0608	11.04	485.6	397.09	0.0558	448.6	8.075	16.14	7.83	1.33
	82.78	12.21	65.93	0.00	0.0608	11.04	485.6	397.14	0.0558	448.4	8.071	16.13	7.82	1.32
	83.78	12.19	65.93	0.00	0.0607	11.03	485.3	396.88	0.0559	449.1	8.083	16.16	7.84	1.32
	84.78	12.19	65.93	0.00	0.0608	11.03	485.4	396.95	0.0559	448.2	8.068	16.13	7.81	1.32
	85.78	12.19	65.93	0.00	0.0607	11.02	484.9	396.52	0.0560	450.4	8.107	16.21	7.89	1.32
	86.86	12.21	65.96	0.00	0.0607	11.03	485.2	396.67	0.0556	448.0	8.064	16.11	7.81	1.33
	87.78	12.21	65.96	0.00	0.0607	11.02	484.7	396.22	0.0558	449.7	8.095	16.18	7.86	1.32
	88.80	12.21	65.93	0.00	0.0606	11.01	484.4	396.13	0.0560	451.8	8.132	16.26	7.93	1.32
	89.78	12.21	65.93	0.00	0.0606	11.01	484.5	396.23	0.0559	449.7	8.095	16.18	7.86	1.32
	90.80	12.22	65.96	0.00	0.0607	11.01	484.3	395.94	0.0559	449.1	8.084	16.15	7.84	1.32
	91.78	12.22	65.93	0.00	0.0605	11.00	483.9	395.76	0.0559	450.8	8.114	16.22	7.90	1.32
	92.80	12.21	65.93	0.00	0.0606	10.99	483.7	395.59	0.0560	450.8	8.115	16.22	7.90	1.33
	93.78	12.22	65.93	0.00	0.0606	10.99	483.6	395.48	0.0559	449.7	8.095	16.18	7.87	1.32
	94.78	12.22	65.93	0.00	0.0605	10.99	483.4	395.36	0.0558	449.4	8.090	16.17	7.86	1.32
	95.78	12.24	65.96	0.00	0.0605	10.98	483.1	394.97	0.0560	450.1	8.101	16.19	7.88	1.32
	96.78	12.24	65.93	0.00	0.0605	10.98	482.9	394.95	0.0561	449.6	8.092	16.18	7.86	1.32
	97.78	12.24	65.93	0.00	0.0605	10.97	482.8	394.86	0.0558	448.7	8.076	16.15	7.83	1.32
	98.78	12.24	65.93	0.00	0.0605	10.97	482.5	394.60	0.0559	449.4	8.088	16.17	7.85	1.33
	99.78	12.25	65.93	0.00	0.0604	10.96	482.4	394.54	0.0558	448.9	8.081	16.16	7.84	1.32
	100.78	12.24	65.93	0.00	0.0604	10.96	482.2	394.35	0.0558	448.6	8.075	16.14	7.83	1.32
	101.78	12.25	65.96	0.00	0.0605	10.95	481.9	393.97	0.0560	449.6	8.093	16.17	7.86	1.32
	102.78	12.25	65.93	0.00	0.0603	10.95	481.7	393.95	0.0558	449.3	8.087	16.17	7.85	1.32
	103.78	12.25	65.91	0.00	0.0603	10.94	481.5	393.92	0.0558	448.4	8.072	16.14	7.82	1.32
	104.78	12.24	65.96	0.00	0.0603	10.94	481.2	393.41	0.0558	448.1	8.066	16.12	7.81	1.33
	105.78	12.25	65.93	0.00	0.0603	10.93	480.9	393.34	0.0558	448.3	8.069	16.13	7.82	1.32
	106.78	12.25	65.96	0.00	0.0603	10.92	480.7	393.01	0.0558	448.7	8.077	16.14	7.83	1.32
	107.78	12.25	65.93	0.00	0.0602	10.92	480.4	392.93	0.0558	448.5	8.074	16.14	7.83	1.32
	108.78	12.26	65.93	0.00	0.0602	10.91	480.2	392.74	0.0557	448.2	8.068	16.13	7.82	1.32
	109.78	12.27	65.93	0.00	0.0602	10.90	479.8	392.47	0.0558	448.4	8.072	16.14	7.83	1.33
	110.78	12.30	65.98	0.00	0.0602	10.90	479.7	392.16	0.0557	447.1	8.048	16.08	7.78	1.33
	111.78	12.27	65.96	0.00	0.0601	10.89	479.2	391.80	0.0558	448.9	8.080	16.15	7.84	1.32
	112.78	12.26	65.93	0.00	0.0600	10.89	479.0	391.82	0.0557	448.0	8.064	16.12	7.81	1.33
	113.86	12.27	65.93	0.00	0.0601	10.88	478.7	391.55	0.0558	447.6	8.057	16.11	7.80	1.33
	114.78	12.29	65.93	0.00	0.0600	10.87	478.4	391.35	0.0557	446.5	8.037	16.07	7.76	1.33
	115.86	12.29	65.93	0.00	0.0600	10.86	477.8	390.83	0.0558	449.1	8.083	16.16	7.85	1.33
	116.78	12.29	65.96	0.00	0.0600	10.86	477.6	390.58	0.0557	446.8	8.043	16.08	7.77	1.33
	117.80	12.29	65.93	0.00	0.0600	10.85	477.3	390.42	0.0556	446.4	8.035	16.07	7.76	1.32
	118.78	12.29	65.93	0.00	0.0598	10.83	476.6	389.89	0.0557	447.3	8.051	16.10	7.79	1.33
	119.80	12.29	65.93	0.00	0.0599	10.83	476.5	389.77	0.0555	445.7	8.022	16.04	7.74	1.33
	120.84	12.29	65.93	0.00	0.0598	10.82	476.1	389.44	0.0555	445.8	8.024	16.04	7.74	1.33
	121.91	12.32	65.96	0.00	0.0598	10.81	475.6	388.91	0.0556	446.1	8.029	16.05	7.75	1.33
	122.80	12.29	65.93	0.00	0.0597	10.80	475.1	388.67	0.0555	445.2	8.013	16.02	7.72	1.33
	123.80	12.30	65.93	0.00	0.0597	10.79	474.7	388.33	0.0555	444.8	8.007	16.01	7.71	1.32
	124.80	12.30	65.96	0.00	0.0596	10.77	473.9	387.55	0.0555	445.5	8.019	16.03	7.73	1.33
	125.80	12.32	65.93	0.00	0.0595	10.76	473.5	387.39	0.0554	444.6	8.002	16.00	7.70	1.33
	126.80	12.30	65.93	0.00	0.0595	10.75	472.9	386.82	0.0554	444.5	8.001	16.00	7.70	1.33
	127.80	12.32	65.93	0.00	0.0594	10.74	472.7	386.72	0.0552	442.5	7.964	15.93	7.63	1.33
	128.80	12.32	65.93	0.00	0.0594	10.72	471.7	385.91	0.0553	444.2	7.996	15.99	7.69	1.33
	129.80	12.33	65.96	0.00	0.0592	10.71	471.2	385.35	0.0552	443.1	7.976	15.95	7.65	1.33
	130.80	12.33	65.96	0.00	0.0593	10.70	470.8	385.03	0.0551	442.1	7.958	15.91	7.62	1.33
	131.80	12.32	65.93	0.00	0.0592	10.68	470.1	384.55	0.0553	443.2	7.977	15.95	7.65	1.33
	132.80	12.33	65.91	0.00	0.0592	10.67	469.7	384.40	0.0552	441.0	7.938	15.88	7.58	1.33
	133.80	12.33	65.91	0.00	0.0591	10.66	468.9	383.79	0.0553	441.8	7.953	15.91	7.61	1.33
	134.88	12.32	65.93	0.00	0.0589	10.64	468.0	382.90	0.0551	441.4	7.945	15.89	7.60	1.33
	135.80	12.33	65.93	0.00	0.0590	10.62	467.2	382.27	0.0551	441.2	7.941	15.88	7.59	1.33
	136.78	12.33	65.93	0.00	0.0589	10.60	466.3	381.51	0.0552	441.6	7.949	15.90	7.60	1.33
	137.80	12.33	65.93	0.00	0.0588	10.58	465.4	380.77	0.0550	440.6	7.931	15.86	7.57	1.33
	138.88	12.35	65.93	0.00	0.0587	10.56	464.6	380.16	0.0548	438.3	7.890	15.78	7.50	1.33
	139.80	12.35	65.93	0.00	0.0586	10.54	463.9	379.60	0.0548	437.8	7.880	15.76	7.48	1.33
