Mar 14 2018 at 8:22:28
Frequency: 1.00Hz.
CO2
Zero:  Value:0.91  Date:May 19 2009 at 7:53:33 AM
Span:  Value:1.00  Date:May 19 2009 at 8:00:06 AM
H2O
Zero:  Value:0.77  Date:May 19 2009 at 7:54:01 AM
Span:  Value:1.01  Date:28 Jun 2004	 at 08:29:05	
Second attempt for troubleshooting cloud cover
	Relative Time	Temperature	Pressure	Aux Input	CO2 Absorptance	CO2 mmol/m3	CO2 mg/m3	CO2 umol/mol	H2O Absorptance	H2O mmol/m3	H2O g/m3	H2O mmol/mol	H2O(°C)	Cooler Voltage
	0.78	19.04	65.96	0.00	0.0607	11.03	485.3	406.23	0.0540	428.5	7.713	15.78	7.50	1.39
	1.80	19.03	65.99	0.00	0.0606	11.02	484.9	405.69	0.0545	430.5	7.749	15.85	7.57	1.39
	2.78	19.04	65.96	0.00	0.0606	11.00	484.0	405.14	0.0543	434.4	7.819	16.00	7.70	1.39
	3.80	19.03	65.93	0.00	0.0605	10.99	483.5	404.82	0.0547	435.5	7.838	16.04	7.74	1.39
	4.78	19.04	65.96	0.00	0.0604	10.96	482.2	403.64	0.0555	443.4	7.982	16.33	8.00	1.39
	5.80	19.04	65.96	0.00	0.0603	10.92	480.5	402.18	0.0559	452.1	8.137	16.65	8.29	1.39
	6.78	19.06	65.96	0.00	0.0603	10.92	480.6	402.32	0.0551	447.2	8.050	16.47	8.13	1.39
	7.80	19.04	65.96	0.00	0.0603	10.94	481.2	402.77	0.0557	441.9	7.955	16.28	7.95	1.39
	8.86	19.06	65.96	0.00	0.0602	10.90	479.7	401.55	0.0559	450.1	8.102	16.58	8.23	1.39
	9.78	19.06	65.96	0.00	0.0602	10.91	480.1	401.85	0.0562	452.0	8.136	16.65	8.29	1.39
	10.80	19.08	65.96	0.00	0.0602	10.90	479.5	401.39	0.0568	456.1	8.209	16.80	8.42	1.39
	11.78	19.08	65.96	0.00	0.0601	10.89	479.1	401.06	0.0564	456.0	8.209	16.80	8.42	1.39
	12.80	19.06	65.96	0.00	0.0601	10.87	478.4	400.46	0.0572	461.7	8.311	17.01	8.60	1.39
	13.78	19.04	65.98	0.00	0.0600	10.86	478.0	400.00	0.0575	464.6	8.363	17.11	8.69	1.39
	14.80	19.06	65.96	0.00	0.0601	10.86	477.8	399.97	0.0570	468.2	8.428	17.24	8.81	1.39
	15.78	19.04	65.96	0.00	0.0600	10.85	477.5	399.68	0.0575	468.8	8.439	17.27	8.83	1.39
	16.80	19.06	65.96	0.00	0.0599	10.85	477.3	399.55	0.0583	473.0	8.514	17.42	8.96	1.39
	17.78	19.08	65.96	0.00	0.0599	10.83	476.6	399.01	0.0585	483.4	8.701	17.81	9.28	1.39
	18.80	19.06	65.96	0.00	0.0599	10.84	476.9	399.22	0.0585	483.8	8.708	17.82	9.29	1.39
	19.78	19.08	65.96	0.00	0.0598	10.83	476.4	398.82	0.0590	482.0	8.675	17.75	9.24	1.39
	20.78	19.06	65.96	0.00	0.0599	10.83	476.4	398.75	0.0590	485.5	8.739	17.88	9.34	1.39
	21.80	19.09	65.96	0.00	0.0599	10.83	476.6	399.02	0.0584	480.3	8.645	17.69	9.19	1.39
	22.78	19.09	65.96	0.00	0.0598	10.82	476.0	398.51	0.0593	485.5	8.740	17.89	9.35	1.39
	23.80	19.08	65.96	0.00	0.0597	10.80	475.1	397.73	0.0596	490.8	8.834	18.08	9.51	1.39
	24.78	19.08	65.96	0.00	0.0598	10.80	475.4	397.95	0.0596	489.9	8.818	18.04	9.48	1.39
	25.80	19.09	65.96	0.00	0.0597	10.79	474.7	397.40	0.0602	496.3	8.934	18.28	9.68	1.39
	26.78	19.06	65.99	0.00	0.0597	10.80	475.0	397.47	0.0601	495.8	8.924	18.25	9.66	1.39
	27.80	19.08	65.96	0.00	0.0596	10.79	474.6	397.32	0.0604	500.4	9.008	18.43	9.80	1.39
	28.78	19.09	65.98	0.00	0.0597	10.78	474.4	396.99	0.0603	500.2	9.004	18.42	9.79	1.39
	29.80	19.09	65.99	0.00	0.0596	10.77	474.1	396.75	0.0612	507.1	9.129	18.67	10.00	1.39
	30.78	19.11	65.94	0.00	0.0595	10.76	473.5	396.58	0.0610	506.4	9.114	18.66	9.97	1.39
	31.80	19.11	65.96	0.00	0.0596	10.76	473.5	396.44	0.0614	512.8	9.230	18.89	10.16	1.39
	32.80	19.11	65.96	0.00	0.0596	10.75	473.1	396.10	0.0616	518.7	9.337	19.11	10.34	1.39
	33.78	19.09	65.96	0.00	0.0595	10.74	472.5	395.58	0.0616	514.3	9.258	18.95	10.21	1.39
	34.80	19.11	65.96	0.00	0.0595	10.73	472.0	395.21	0.0619	519.6	9.352	19.14	10.36	1.39
	35.78	19.11	65.96	0.00	0.0594	10.73	472.1	395.28	0.0624	521.7	9.391	19.22	10.42	1.39
	36.80	19.11	65.96	0.00	0.0596	10.74	472.4	395.50	0.0621	523.0	9.415	19.27	10.46	1.39
	37.78	19.11	65.96	0.00	0.0595	10.73	472.2	395.35	0.0619	517.0	9.306	19.05	10.29	1.39
	38.80	19.13	65.96	0.00	0.0593	10.71	471.3	394.63	0.0622	522.6	9.406	19.25	10.45	1.39
	39.78	19.13	65.96	0.00	0.0594	10.73	472.2	395.36	0.0632	530.3	9.545	19.53	10.67	1.39
	40.80	19.13	65.96	0.00	0.0593	10.70	471.0	394.36	0.0627	529.6	9.532	19.51	10.65	1.39
	41.78	19.13	65.96	0.00	0.0594	10.72	471.6	394.84	0.0625	523.3	9.420	19.28	10.47	1.39
	42.80	19.13	65.98	0.00	0.0593	10.68	470.0	393.41	0.0637	537.6	9.677	19.80	10.87	1.39
	43.86	19.13	65.96	0.00	0.0593	10.70	470.7	394.09	0.0631	528.1	9.505	19.45	10.60	1.39
	44.80	19.11	65.96	0.00	0.0592	10.68	470.0	393.51	0.0635	541.2	9.742	19.94	10.97	1.39
	45.80	19.13	65.96	0.00	0.0592	10.67	469.6	393.18	0.0639	542.8	9.770	20.00	11.02	1.39
	46.78	19.14	65.99	0.00	0.0592	10.65	468.6	392.22	0.0646	568.9	10.241	20.95	11.73	1.39
	47.80	19.14	65.96	0.00	0.0591	10.64	468.4	392.17	0.0641	542.5	9.765	19.99	11.01	1.39
	48.78	19.16	65.96	0.00	0.0590	10.64	468.0	391.87	0.0637	541.5	9.746	19.95	10.98	1.39
	49.80	19.14	65.96	0.00	0.0590	10.63	467.9	391.72	0.0641	543.1	9.776	20.01	11.03	1.39
	50.78	19.14	65.93	0.00	0.0590	10.62	467.4	391.54	0.0642	546.1	9.830	20.13	11.11	1.39
	51.80	19.14	65.94	0.00	0.0589	10.62	467.2	391.35	0.0645	545.4	9.818	20.10	11.09	1.39
	52.78	19.13	65.94	0.00	0.0589	10.61	466.9	391.09	0.0656	584.6	10.523	21.54	12.14	1.39
	53.80	19.14	65.96	0.00	0.0587	10.59	466.0	390.16	0.0645	544.4	9.799	20.06	11.06	1.39
	54.78	19.14	65.93	0.00	0.0588	10.57	465.1	389.60	0.0646	550.6	9.911	20.29	11.23	1.39
	55.80	19.16	65.96	0.00	0.0587	10.56	464.5	388.96	0.0646	551.9	9.935	20.34	11.27	1.39
	56.80	19.14	65.93	0.00	0.0586	10.53	463.4	388.18	0.0650	555.0	9.990	20.45	11.35	1.39
	57.80	19.16	65.96	0.00	0.0585	10.53	463.1	387.83	0.0659	567.7	10.218	20.92	11.70	1.39
	58.80	19.18	65.96	0.00	0.0585	10.51	462.6	387.43	0.0649	551.9	9.934	20.34	11.27	1.39
	59.78	19.16	65.96	0.00	0.0584	10.49	461.6	386.53	0.0652	554.7	9.985	20.44	11.35	1.39
	60.80	19.18	65.93	0.00	0.0584	10.47	460.6	385.91	0.0652	555.0	9.990	20.46	11.35	1.39
	61.78	19.14	65.96	0.00	0.0582	10.47	460.6	385.68	0.0650	553.5	9.962	20.39	11.31	1.39
	62.80	19.18	65.96	0.00	0.0583	10.45	460.0	385.22	0.0653	559.7	10.075	20.62	11.48	1.39
	63.78	19.18	65.96	0.00	0.0581	10.41	458.2	383.72	0.0653	558.5	10.053	20.58	11.45	1.39
	64.80	19.19	65.94	0.00	0.0580	10.41	458.0	383.69	0.0657	560.7	10.092	20.67	11.51	1.39
	65.78	19.18	65.93	0.00	0.0578	10.39	457.0	382.82	0.0654	552.4	9.943	20.36	11.28	1.39
	66.80	19.18	65.98	0.00	0.0578	10.35	455.6	381.39	0.0652	556.3	10.013	20.49	11.39	1.39
	67.78	19.19	65.94	0.00	0.0576	10.33	454.6	380.86	0.0652	556.3	10.014	20.51	11.39	1.40
	68.80	19.18	65.93	0.00	0.0576	10.31	453.5	379.88	0.0654	556.5	10.016	20.51	11.39	1.39
	69.86	19.18	65.96	0.00	0.0574	10.26	451.6	378.15	0.0656	563.4	10.141	20.76	11.58	1.39
	70.80	19.19	65.96	0.00	0.0571	10.21	449.3	376.24	0.0651	556.0	10.007	20.49	11.38	1.40
	71.80	19.19	65.93	0.00	0.0570	10.17	447.5	374.88	0.0650	556.7	10.020	20.52	11.40	1.39
	72.78	19.19	65.96	0.00	0.0568	10.13	445.6	373.21	0.0650	555.1	9.993	20.46	11.36	1.40
	73.80	19.19	65.96	0.00	0.0565	10.09	443.8	371.68	0.0650	555.4	9.997	20.47	11.37	1.40
	74.78	19.18	65.96	0.00	0.0564	10.04	441.9	370.07	0.0651	556.1	10.010	20.49	11.38	1.39
	75.80	19.21	65.96	0.00	0.0562	10.00	439.8	368.36	0.0647	554.0	9.972	20.41	11.33	1.39
	76.78	19.19	65.96	0.00	0.0558	9.91	436.2	365.28	0.0651	555.9	10.006	20.48	11.38	1.40
	77.80	19.21	65.96	0.00	0.0552	9.81	431.8	361.67	0.0650	555.4	9.998	20.47	11.37	1.39
	78.78	19.19	65.98	0.00	0.0547	9.69	426.2	356.79	0.0646	550.1	9.901	20.26	11.22	1.40
	79.80	19.21	65.98	0.00	0.0542	9.57	421.2	352.62	0.0642	548.7	9.877	20.21	11.18	1.40
	80.78	19.19	65.96	0.00	0.0536	9.44	415.2	347.69	0.0643	545.6	9.820	20.10	11.10	1.40
	81.80	19.18	65.96	0.00	0.0530	9.31	409.7	343.06	0.0639	542.4	9.763	19.98	11.01	1.40
	82.78	19.21	65.96	0.00	0.0526	9.21	405.2	339.38	0.0635	539.7	9.714	19.89	10.93	1.40
	83.80	19.21	65.96	0.00	0.0519	9.08	399.6	334.69	0.0637	535.8	9.644	19.74	10.83	1.40
	84.86	19.19	65.94	0.00	0.0513	8.94	393.1	329.36	0.0631	534.3	9.618	19.70	10.78	1.40
	85.80	19.23	65.96	0.00	0.0505	8.77	385.8	323.11	0.0631	533.9	9.610	19.68	10.77	1.40
	86.80	19.23	65.96	0.00	0.0497	8.62	379.1	317.55	0.0625	524.7	9.445	19.34	10.51	1.40
	87.78	19.23	65.98	0.00	0.0488	8.42	370.5	310.20	0.0621	520.7	9.372	19.18	10.40	1.40
	88.80	19.23	65.96	0.00	0.0479	8.24	362.6	303.70	0.0621	518.2	9.328	19.10	10.33	1.40
	89.78	19.21	65.96	0.00	0.0468	8.00	352.0	294.78	0.0610	511.9	9.214	18.86	10.14	1.40
	90.80	19.21	65.94	0.00	0.0453	7.71	339.3	284.25	0.0610	509.2	9.166	18.77	10.06	1.40
	91.78	19.23	65.96	0.00	0.0439	7.41	326.2	273.20	0.0601	502.2	9.040	18.51	9.86	1.40
	92.80	19.23	65.96	0.00	0.0424	7.13	313.7	262.73	0.0594	490.3	8.826	18.07	9.50	1.40
	93.78	19.23	65.94	0.00	0.0408	6.82	300.0	251.37	0.0587	482.3	8.681	17.78	9.26	1.40
	94.80	19.23	65.92	0.00	0.0391	6.51	286.4	240.02	0.0584	478.6	8.616	17.65	9.14	1.40
	95.78	19.21	65.91	0.00	0.0374	6.18	272.0	227.98	0.0575	466.5	8.396	17.20	8.76	1.40
	96.80	19.23	65.93	0.00	0.0362	5.93	261.1	218.79	0.0573	461.6	8.308	17.02	8.60	1.40
	97.80	19.23	65.96	0.00	0.0345	5.63	247.6	207.38	0.0563	460.1	8.281	16.95	8.56	1.40
	98.80	19.23	65.93	0.00	0.0329	5.36	235.7	197.50	0.0560	452.3	8.141	16.67	8.31	1.40
	99.80	19.24	65.96	0.00	0.0312	5.05	222.0	185.99	0.0554	445.1	8.011	16.40	8.07	1.40
	100.78	19.24	65.96	0.00	0.0292	4.71	207.5	173.77	0.0546	434.6	7.822	16.02	7.72	1.40
	101.80	19.26	65.96	0.00	0.0270	4.32	190.2	159.34	0.0537	425.9	7.666	15.70	7.42	1.40
	102.78	19.23	65.96	0.00	0.0251	4.00	175.8	147.24	0.0530	419.1	7.543	15.44	7.19	1.40
	103.80	19.26	65.96	0.00	0.0230	3.64	160.3	134.31	0.0522	409.2	7.366	15.08	6.84	1.40
	104.78	19.26	65.96	0.00	0.0213	3.33	146.6	122.76	0.0513	403.0	7.254	14.85	6.62	1.40
	105.80	19.23	65.96	0.00	0.0188	2.97	130.8	109.57	0.0510	398.7	7.176	14.69	6.46	1.40
	106.78	19.26	65.96	0.00	0.0163	2.56	112.4	94.19	0.0498	386.4	6.955	14.24	6.01	1.40
	107.80	19.26	65.96	0.00	0.0145	2.25	99.1	83.01	0.0484	371.4	6.686	13.69	5.44	1.40
	108.86	19.26	65.96	0.00	0.0125	1.93	85.0	71.19	0.0478	368.9	6.640	13.60	5.34	1.40
	109.80	19.26	65.96	0.00	0.0099	1.57	69.2	57.95	0.0473	360.6	6.491	13.29	5.01	1.40
	110.80	19.26	65.96	0.00	0.0075	1.22	53.7	45.00	0.0467	349.9	6.299	12.90	4.58	1.40
	111.78	19.28	65.93	0.00	0.0046	0.75	33.0	27.66	0.0452	339.9	6.118	12.53	4.17	1.40
	112.80	19.28	65.96	0.00	0.0020	0.34	14.8	12.36	0.0443	329.1	5.923	12.13	3.71	1.40
	113.88	19.30	65.94	0.00	-0.0008	-0.07	-3.3	-2.74	0.0429	317.5	5.715	11.71	3.20	1.40
	114.80	19.28	65.96	0.00	-0.0032	-0.42	-18.6	-15.58	0.0421	308.1	5.546	11.36	2.78	1.40
	115.80	19.28	65.96	0.00	-0.0059	-0.81	-35.6	-29.81	0.0414	300.8	5.414	11.09	2.44	1.40
	116.80	19.28	65.96	0.00	-0.0091	-1.30	-57.2	-47.92	0.0402	291.0	5.238	10.73	1.98	1.40
	117.86	19.24	65.94	0.00	-0.0114	-1.68	-73.7	-61.79	0.0390	279.3	5.028	10.30	1.40	1.40
	118.80	19.28	65.99	0.00	-0.0132	-1.91	-84.1	-70.45	0.0385	273.1	4.916	10.06	1.09	1.40
	119.80	19.28	65.93	0.00	-0.0155	-2.27	-99.9	-83.69	0.0377	264.4	4.759	9.75	0.64	1.41
	120.80	19.26	65.96	0.00	-0.0183	-2.76	-121.7	-101.90	0.0365	256.0	4.609	9.44	0.20	1.40
	121.80	19.29	65.96	0.00	-0.0222	-3.31	-145.7	-122.05	0.0356	251.9	4.535	9.29	-0.02	1.40
	122.95	19.31	65.94	0.00	-0.0255	-3.91	-171.9	-144.06	0.0341	237.6	4.276	8.76	-0.83	1.40
	123.80	19.31	65.96	0.00	-0.0283	-4.43	-194.9	-163.33	0.0332	225.7	4.063	8.32	-1.53	1.40
	124.78	19.29	65.93	0.00	-0.0325	-5.14	-226.1	-189.45	0.0318	215.9	3.885	7.96	-2.13	1.41
	125.80	19.28	65.96	0.00	-0.0353	-5.84	-256.8	-215.15	0.0291	201.6	3.628	7.43	-3.06	1.41
