Mar 14 2018 at 7:44:45
Frequency: 1Hz.
CO2
Zero:  Value:0.914415  Date:May 19 2009 at 7:53:33 AM
Span:  Value:1.00445  Date:May 19 2009 at 8:00:06 AM
H2O
Zero:  Value:0.772015  Date:May 19 2009 at 7:54:01 AM
Span:  Value:1.00616  Date:28 Jun 2004	 at 08:29:05	
Second attempt for troubleshooting respiration
	Relative Time	Temperature	Pressure	Aux Input	CO2 Absorptance	CO2 mmol/m3	CO2 mg/m3	CO2 umol/mol	H2O Absorptance	H2O mmol/m3	H2O g/m3	H2O mmol/mol	H2O(°C)	Cooler Voltage
	0.33	15.37	65.94	0.00	0.0607	11.02	484.8	400.79	0.0560	447.3	8.051	16.27	7.95	1.34
	1.34	15.39	65.93	0.00	0.0608	11.06	486.6	402.37	0.0548	436.5	7.856	15.88	7.59	1.35
	2.33	15.39	65.96	0.00	0.0629	11.45	503.9	416.52	0.0553	445.8	8.025	16.21	7.90	1.35
	3.33	15.39	65.94	0.00	0.0616	11.24	494.5	408.90	0.0552	447.6	8.057	16.28	7.96	1.35
	4.33	15.39	65.96	0.00	0.0609	11.07	486.9	402.47	0.0551	441.7	7.950	16.06	7.76	1.35
	5.33	15.39	65.93	0.00	0.0610	11.09	487.8	403.37	0.0548	440.6	7.930	16.03	7.72	1.35
	6.41	15.39	65.94	0.00	0.0610	11.06	486.7	402.45	0.0559	449.5	8.091	16.35	8.02	1.35
	7.33	15.39	65.96	0.00	0.0611	11.10	488.5	403.78	0.0555	444.6	8.003	16.17	7.86	1.35
	8.34	15.39	65.93	0.00	0.0610	11.09	488.0	403.52	0.0554	444.6	8.004	16.18	7.86	1.35
	9.33	15.39	65.96	0.00	0.0609	11.05	486.4	402.03	0.0556	447.2	8.050	16.27	7.95	1.35
	10.34	15.40	65.96	0.00	0.0607	11.05	486.2	401.92	0.0566	450.9	8.117	16.40	8.07	1.35
	11.33	15.40	65.96	0.00	0.0609	11.08	487.7	403.10	0.0561	448.7	8.077	16.32	8.00	1.35
	12.34	15.40	65.96	0.00	0.0609	11.07	487.3	402.80	0.0561	449.0	8.082	16.33	8.00	1.35
	13.33	15.40	65.96	0.00	0.0608	11.05	486.3	402.02	0.0561	452.9	8.153	16.47	8.13	1.35
	14.33	15.40	65.96	0.00	0.0609	11.04	485.6	401.44	0.0563	453.8	8.168	16.50	8.16	1.35
	15.41	15.39	65.98	0.00	0.0608	11.05	486.2	401.74	0.0563	454.7	8.185	16.53	8.19	1.35
	16.33	15.42	65.96	0.00	0.0608	11.03	485.5	401.31	0.0565	459.1	8.263	16.70	8.33	1.35
	17.41	15.40	65.96	0.00	0.0606	11.03	485.2	401.07	0.0570	459.4	8.269	16.71	8.34	1.35
	18.33	15.40	65.96	0.00	0.0607	11.02	485.0	400.91	0.0571	459.9	8.278	16.73	8.36	1.34
	19.34	15.43	65.96	0.00	0.0608	11.04	485.8	401.60	0.0567	458.3	8.250	16.67	8.31	1.35
	20.33	15.40	65.96	0.00	0.0607	11.01	484.5	400.51	0.0572	462.8	8.331	16.83	8.45	1.35
	21.34	15.42	65.96	0.00	0.0606	11.01	484.6	400.62	0.0574	465.7	8.382	16.94	8.54	1.35
	22.33	15.42	65.89	0.00	0.0606	11.01	484.3	400.75	0.0575	467.4	8.413	17.02	8.60	1.35
	23.34	15.40	65.98	0.00	0.0607	11.01	484.6	400.41	0.0574	466.5	8.398	16.96	8.57	1.35
	24.33	15.42	65.91	0.00	0.0606	11.00	484.0	400.38	0.0577	469.1	8.443	17.07	8.65	1.35
	25.34	15.44	65.94	0.00	0.0606	11.00	484.1	400.33	0.0578	471.5	8.486	17.16	8.73	1.35
	26.33	15.44	65.96	0.00	0.0606	11.00	484.0	400.16	0.0579	472.6	8.508	17.19	8.76	1.35
	27.33	15.44	65.89	0.00	0.0606	11.00	484.0	400.55	0.0581	473.6	8.525	17.25	8.79	1.34
	28.33	15.44	65.93	0.00	0.0606	10.99	483.5	399.83	0.0581	473.0	8.513	17.21	8.77	1.35
	29.33	15.44	65.96	0.00	0.0606	10.99	483.7	399.88	0.0581	473.9	8.529	17.24	8.80	1.35
	30.41	15.44	65.96	0.00	0.0605	10.99	483.5	399.67	0.0583	476.3	8.573	17.33	8.88	1.35
	31.33	15.42	65.96	0.00	0.0605	10.99	483.6	399.76	0.0584	478.6	8.614	17.41	8.95	1.35
	32.34	15.44	65.96	0.00	0.0605	10.98	483.3	399.57	0.0585	478.9	8.620	17.42	8.96	1.35
	33.33	15.44	65.96	0.00	0.0606	10.99	483.5	399.67	0.0585	479.0	8.621	17.42	8.96	1.35
	34.34	15.45	65.96	0.00	0.0605	10.99	483.6	399.80	0.0586	480.7	8.652	17.49	9.01	1.35
	35.33	15.44	65.96	0.00	0.0606	10.98	483.2	399.43	0.0587	479.0	8.622	17.42	8.96	1.35
	36.34	15.45	65.93	0.00	0.0605	10.98	483.3	399.72	0.0587	480.7	8.653	17.49	9.01	1.35
	37.33	15.44	65.96	0.00	0.0606	10.99	483.7	399.84	0.0589	483.7	8.707	17.60	9.11	1.35
	38.34	15.47	65.96	0.00	0.0605	10.98	483.3	399.55	0.0588	482.9	8.692	17.57	9.08	1.35
	39.41	15.47	65.93	0.00	0.0605	10.98	483.1	399.58	0.0590	483.4	8.702	17.59	9.10	1.35
	40.33	15.47	65.96	0.00	0.0605	10.98	483.2	399.51	0.0588	483.8	8.709	17.60	9.11	1.35
	41.41	15.47	65.96	0.00	0.0606	10.98	483.2	399.55	0.0589	483.5	8.703	17.59	9.10	1.35
	42.33	15.47	65.96	0.00	0.0605	10.98	483.1	399.45	0.0590	485.3	8.735	17.65	9.15	1.35
	43.34	15.47	65.94	0.00	0.0605	10.98	483.2	399.68	0.0592	486.9	8.763	17.72	9.20	1.35
	44.33	15.47	65.96	0.00	0.0606	10.97	482.7	399.08	0.0591	485.2	8.733	17.65	9.15	1.35
	45.34	15.47	65.99	0.00	0.0605	10.99	483.4	399.52	0.0592	487.5	8.776	17.73	9.22	1.35
	46.33	15.48	65.96	0.00	0.0605	10.98	483.3	399.61	0.0591	486.5	8.757	17.70	9.19	1.35
	47.34	15.47	65.96	0.00	0.0605	10.98	483.2	399.48	0.0593	488.0	8.784	17.75	9.24	1.35
	48.33	15.48	65.96	0.00	0.0606	10.99	483.5	399.76	0.0594	489.3	8.807	17.80	9.28	1.35
	49.34	15.48	65.96	0.00	0.0605	10.99	483.4	399.67	0.0594	489.8	8.816	17.82	9.29	1.35
	50.33	15.48	65.93	0.00	0.0605	10.99	483.4	399.84	0.0595	490.8	8.835	17.86	9.32	1.35
	51.33	15.48	65.96	0.00	0.0605	10.99	483.4	399.69	0.0596	490.9	8.836	17.86	9.33	1.35
	52.33	15.50	65.96	0.00	0.0605	10.98	483.2	399.57	0.0596	491.4	8.846	17.88	9.34	1.35
	53.33	15.47	65.96	0.00	0.0605	10.99	483.4	399.65	0.0597	491.8	8.853	17.89	9.35	1.35
	54.34	15.50	65.96	0.00	0.0605	10.98	483.3	399.60	0.0596	491.1	8.839	17.87	9.33	1.35
	55.33	15.50	65.96	0.00	0.0605	10.97	482.9	399.30	0.0595	490.2	8.823	17.83	9.31	1.35
	56.34	15.50	65.93	0.00	0.0605	10.98	483.3	399.82	0.0597	492.3	8.862	17.92	9.37	1.35
	57.33	15.50	65.96	0.00	0.0606	10.98	483.2	399.51	0.0598	492.0	8.856	17.90	9.36	1.35
	58.34	15.50	65.96	0.00	0.0606	10.98	483.2	399.58	0.0598	492.7	8.868	17.93	9.38	1.35
	59.33	15.52	65.96	0.00	0.0606	11.00	483.8	400.09	0.0598	494.1	8.894	17.98	9.43	1.35
	60.34	15.50	65.96	0.00	0.0605	10.99	483.7	399.96	0.0598	494.0	8.892	17.97	9.42	1.35
	61.33	15.50	65.96	0.00	0.0605	10.99	483.4	399.75	0.0598	494.9	8.909	18.01	9.45	1.35
	62.33	15.50	65.96	0.00	0.0606	10.98	483.2	399.54	0.0599	494.6	8.904	18.00	9.44	1.35
	63.41	15.50	65.96	0.00	0.0606	10.98	483.2	399.58	0.0599	495.0	8.909	18.01	9.45	1.35
	64.33	15.50	65.93	0.00	0.0605	10.98	483.0	399.53	0.0599	494.7	8.904	18.00	9.44	1.35
	65.41	15.52	65.93	0.00	0.0605	10.98	482.9	399.52	0.0598	494.8	8.907	18.01	9.45	1.35
	66.33	15.52	65.96	0.00	0.0604	10.96	482.3	398.87	0.0598	493.0	8.873	17.94	9.39	1.35
	67.34	15.52	65.96	0.00	0.0605	10.96	482.3	398.81	0.0599	494.4	8.899	17.99	9.43	1.35
	68.33	15.52	65.96	0.00	0.0605	10.97	482.6	399.12	0.0600	495.7	8.923	18.04	9.47	1.35
	69.34	15.52	65.93	0.00	0.0604	10.96	482.2	398.93	0.0600	495.2	8.913	18.02	9.46	1.35
	70.33	15.55	65.96	0.00	0.0605	10.96	482.4	398.92	0.0601	496.4	8.935	18.06	9.50	1.35
	71.34	15.52	65.96	0.00	0.0604	10.96	482.1	398.65	0.0599	495.8	8.925	18.04	9.48	1.35
	72.33	15.53	65.96	0.00	0.0604	10.94	481.4	398.09	0.0599	494.0	8.892	17.98	9.42	1.35
	73.33	15.53	65.93	0.00	0.0603	10.94	481.2	398.10	0.0599	494.8	8.906	18.01	9.45	1.35
	74.33	15.53	65.96	0.00	0.0603	10.93	480.9	397.72	0.0599	495.2	8.913	18.02	9.46	1.35
	75.33	15.52	65.96	0.00	0.0603	10.92	480.6	397.44	0.0599	494.0	8.892	17.97	9.42	1.35
	76.41	15.53	65.93	0.00	0.0603	10.92	480.4	397.42	0.0599	494.2	8.896	17.99	9.43	1.35
	77.33	15.53	65.91	0.00	0.0602	10.91	480.0	397.29	0.0599	494.7	8.904	18.01	9.44	1.35
	78.34	15.53	65.93	0.00	0.0602	10.89	479.3	396.57	0.0598	493.5	8.883	17.96	9.41	1.35
	79.33	15.53	65.93	0.00	0.0601	10.89	479.0	396.24	0.0598	494.0	8.893	17.98	9.42	1.35
	80.34	15.55	65.96	0.00	0.0600	10.87	478.4	395.65	0.0597	492.8	8.871	17.93	9.39	1.35
	81.33	15.55	65.96	0.00	0.0601	10.87	478.3	395.53	0.0599	493.4	8.882	17.96	9.41	1.35
	82.34	15.53	65.96	0.00	0.0600	10.86	477.9	395.24	0.0598	493.0	8.874	17.94	9.39	1.35
	83.33	15.55	65.96	0.00	0.0600	10.85	477.4	394.79	0.0597	492.5	8.864	17.92	9.38	1.35
	84.33	15.56	65.96	0.00	0.0599	10.84	476.9	394.43	0.0597	492.9	8.873	17.94	9.39	1.35
	85.33	15.53	65.96	0.00	0.0598	10.82	476.0	393.62	0.0597	492.3	8.862	17.92	9.37	1.35
	86.33	15.57	65.96	0.00	0.0598	10.81	475.5	393.24	0.0597	491.7	8.851	17.89	9.36	1.35
	87.58	15.53	65.93	0.00	0.0597	10.80	475.0	392.97	0.0596	491.3	8.844	17.89	9.34	1.35
	88.33	15.55	65.93	0.00	0.0597	10.79	474.7	392.73	0.0596	491.4	8.845	17.89	9.35	1.35
	89.41	15.57	65.96	0.00	0.0596	10.77	473.7	391.78	0.0595	490.9	8.836	17.86	9.33	1.35
	90.33	15.57	65.96	0.00	0.0594	10.75	472.9	391.10	0.0594	490.2	8.824	17.84	9.31	1.35
	91.34	15.55	65.96	0.00	0.0594	10.72	471.7	390.10	0.0594	489.0	8.802	17.79	9.27	1.35
	92.33	15.57	65.93	0.00	0.0593	10.70	470.7	389.45	0.0593	487.6	8.777	17.75	9.23	1.35
	93.34	15.55	65.93	0.00	0.0592	10.68	469.9	388.81	0.0593	488.6	8.794	17.79	9.26	1.35
	94.33	15.55	65.96	0.00	0.0591	10.66	468.9	387.75	0.0592	487.3	8.771	17.73	9.22	1.35
	95.34	15.57	65.96	0.00	0.0590	10.63	467.9	386.98	0.0591	486.9	8.764	17.72	9.21	1.35
	96.33	15.57	65.96	0.00	0.0589	10.60	466.5	385.86	0.0591	485.7	8.743	17.68	9.17	1.35
	97.33	15.57	65.96	0.00	0.0588	10.58	465.4	384.93	0.0592	485.7	8.742	17.67	9.17	1.35
	98.33	15.58	65.96	0.00	0.0586	10.55	464.1	383.83	0.0590	484.6	8.723	17.64	9.14	1.35
	99.33	15.58	65.96	0.00	0.0585	10.52	462.7	382.71	0.0589	483.2	8.698	17.59	9.10	1.35
	100.41	15.57	65.96	0.00	0.0585	10.50	461.9	382.04	0.0589	483.3	8.699	17.59	9.10	1.35
	101.33	15.58	65.96	0.00	0.0583	10.46	460.2	380.64	0.0588	482.5	8.685	17.56	9.08	1.35
	102.34	15.58	65.96	0.00	0.0581	10.42	458.7	379.39	0.0588	482.1	8.677	17.54	9.06	1.35
	103.33	15.58	65.96	0.00	0.0579	10.39	457.0	377.98	0.0586	480.7	8.653	17.49	9.02	1.35
	104.34	15.58	65.93	0.00	0.0577	10.35	455.2	376.68	0.0585	479.5	8.631	17.46	8.98	1.35
	105.33	15.58	65.96	0.00	0.0576	10.29	453.0	374.65	0.0585	478.6	8.615	17.42	8.96	1.35
	106.34	15.61	65.93	0.00	0.0573	10.25	451.0	373.20	0.0583	476.1	8.570	17.34	8.88	1.35
	107.33	15.60	65.93	0.00	0.0572	10.22	449.8	372.23	0.0582	475.7	8.563	17.32	8.87	1.35
	108.34	15.58	65.94	0.00	0.0571	10.20	448.8	371.36	0.0582	476.0	8.568	17.33	8.87	1.35
	109.33	15.58	65.96	0.00	0.0569	10.16	446.9	369.65	0.0582	475.2	8.554	17.29	8.85	1.35
	110.34	15.60	65.93	0.00	0.0567	10.12	445.2	368.39	0.0580	474.3	8.538	17.27	8.82	1.35
	111.33	15.60	65.96	0.00	0.0565	10.07	443.2	366.64	0.0580	473.1	8.517	17.22	8.79	1.35
	112.33	15.61	65.94	0.00	0.0563	10.02	441.1	364.97	0.0578	471.6	8.488	17.17	8.74	1.35
	113.33	15.60	65.96	0.00	0.0562	9.99	439.6	363.62	0.0578	471.4	8.485	17.16	8.73	1.35
	114.33	15.58	65.93	0.00	0.0559	9.94	437.3	361.86	0.0576	469.8	8.456	17.10	8.68	1.35
	115.41	15.60	65.93	0.00	0.0558	9.91	436.1	360.88	0.0576	469.2	8.445	17.08	8.66	1.35
	116.33	15.60	65.93	0.00	0.0556	9.88	434.7	359.70	0.0575	467.7	8.419	17.03	8.62	1.35
	117.34	15.61	65.94	0.00	0.0555	9.84	433.1	358.41	0.0575	466.8	8.402	17.00	8.59	1.35
	118.33	15.60	65.96	0.00	0.0553	9.81	431.5	356.88	0.0574	466.1	8.390	16.96	8.56	1.35
	119.34	15.61	65.93	0.00	0.0551	9.75	429.1	355.10	0.0573	465.3	8.376	16.94	8.54	1.35
	120.33	15.61	65.93	0.00	0.0548	9.70	426.9	353.25	0.0572	464.5	8.360	16.91	8.51	1.35
	121.34	15.61	65.96	0.00	0.0546	9.65	424.8	351.40	0.0571	462.8	8.331	16.84	8.46	1.35
	122.33	15.63	65.96	0.00	0.0543	9.59	422.2	349.23	0.0569	461.1	8.301	16.79	8.41	1.35
	123.33	15.61	65.96	0.00	0.0542	9.55	420.2	347.58	0.0568	459.6	8.273	16.73	8.36	1.35
	124.33	15.60	65.96	0.00	0.0539	9.48	417.3	345.20	0.0567	458.6	8.255	16.69	8.33	1.35
	125.33	15.63	65.93	0.00	0.0536	9.42	414.5	343.06	0.0565	456.1	8.210	16.61	8.25	1.35
	126.41	15.63	65.96	0.00	0.0533	9.36	412.0	340.80	0.0564	455.1	8.191	16.56	8.21	1.35
	127.33	15.63	65.94	0.00	0.0531	9.31	409.6	338.92	0.0562	452.8	8.150	16.49	8.14	1.35
	128.34	15.61	65.93	0.00	0.0528	9.25	407.1	336.87	0.0561	451.0	8.117	16.42	8.08	1.35
	129.33	15.63	65.96	0.00	0.0526	9.21	405.1	335.10	0.0559	450.0	8.101	16.38	8.05	1.35
	130.34	15.61	65.96	0.00	0.0524	9.16	402.8	333.24	0.0558	448.2	8.068	16.31	7.99	1.35
	131.33	15.65	65.96	0.00	0.0521	9.11	400.7	331.50	0.0557	447.5	8.055	16.29	7.97	1.35
	132.34	15.65	65.96	0.00	0.0518	9.03	397.4	328.81	0.0555	445.4	8.017	16.21	7.90	1.35
	133.33	15.63	65.93	0.00	0.0516	8.98	395.1	326.96	0.0554	443.5	7.983	16.15	7.84	1.35
	134.34	15.66	65.96	0.00	0.0513	8.92	392.7	324.88	0.0551	441.1	7.939	16.06	7.76	1.35
	135.33	15.65	65.96	0.00	0.0512	8.89	391.1	323.57	0.0550	439.9	7.918	16.01	7.72	1.35
	136.33	15.63	65.96	0.00	0.0509	8.85	389.2	321.97	0.0549	439.5	7.910	16.00	7.70	1.35
	137.33	15.66	65.96	0.00	0.0506	8.79	386.8	320.05	0.0548	437.9	7.883	15.94	7.65	1.35
	138.33	15.66	65.98	0.00	0.0504	8.73	384.2	317.80	0.0547	436.1	7.850	15.87	7.59	1.35
	139.41	15.66	65.96	0.00	0.0501	8.67	381.5	315.65	0.0545	434.7	7.824	15.82	7.54	1.35
	140.33	15.66	65.96	0.00	0.0497	8.60	378.4	313.07	0.0544	432.7	7.788	15.75	7.47	1.35
	141.34	15.66	65.93	0.00	0.0494	8.52	374.8	310.22	0.0541	429.8	7.737	15.65	7.38	1.35
	142.33	15.66	65.93	0.00	0.0490	8.45	371.6	307.60	0.0538	427.8	7.700	15.58	7.31	1.35
	143.34	15.66	65.93	0.00	0.0488	8.39	369.1	305.49	0.0538	426.0	7.668	15.51	7.25	1.35
	144.33	15.66	65.96	0.00	0.0485	8.34	366.8	303.48	0.0535	424.8	7.646	15.46	7.20	1.35
	145.34	15.66	65.93	0.00	0.0482	8.27	363.8	301.10	0.0534	422.2	7.599	15.37	7.11	1.35
	146.33	15.68	65.96	0.00	0.0478	8.21	361.1	298.77	0.0533	420.9	7.576	15.32	7.07	1.35
	147.34	15.68	65.93	0.00	0.0474	8.12	357.2	295.69	0.0530	418.4	7.532	15.24	6.99	1.35
	148.33	15.68	65.96	0.00	0.0471	8.05	354.4	293.23	0.0527	416.2	7.492	15.15	6.91	1.35
	149.33	15.68	65.96	0.00	0.0469	8.00	352.0	291.22	0.0526	414.2	7.456	15.08	6.84	1.35
	154.36	15.68	65.98	0.00	0.0465	7.92	348.6	288.34	0.0525	412.4	7.422	15.01	6.77	1.35
	154.36	15.68	65.96	0.00	0.0460	7.83	344.6	285.11	0.0523	410.3	7.386	14.94	6.70	1.35
	154.36	15.66	65.96	0.00	0.0456	7.75	340.9	282.08	0.0520	407.4	7.333	14.83	6.60	1.35
	154.36	15.66	65.96	0.00	0.0452	7.66	336.9	278.70	0.0517	405.0	7.290	14.74	6.51	1.36
	154.36	15.68	65.96	0.00	0.0448	7.58	333.5	275.93	0.0515	402.7	7.249	14.66	6.43	1.35
	155.33	15.66	65.96	0.00	0.0444	7.50	330.0	273.07	0.0513	400.2	7.204	14.57	6.34	1.35
	156.34	15.68	65.98	0.00	0.0440	7.42	326.7	270.22	0.0511	398.0	7.163	14.48	6.26	1.35
	157.33	15.71	65.98	0.00	0.0435	7.34	323.0	267.19	0.0508	395.6	7.121	14.40	6.17	1.35
	158.34	15.70	65.93	0.00	0.0432	7.27	320.0	264.89	0.0507	393.1	7.075	14.32	6.08	1.35
	159.33	15.70	65.96	0.00	0.0428	7.18	315.7	261.25	0.0504	390.7	7.032	14.22	5.99	1.36
	160.34	15.70	65.93	0.00	0.0424	7.11	312.6	258.79	0.0502	389.2	7.005	14.17	5.93	1.35
	161.33	15.71	65.93	0.00	0.0421	7.04	310.0	256.59	0.0500	387.1	6.968	14.10	5.86	1.35
	162.33	15.70	65.96	0.00	0.0418	6.97	306.5	253.65	0.0499	384.8	6.927	14.01	5.77	1.35
	163.41	15.71	65.99	0.00	0.0414	6.90	303.8	251.28	0.0497	383.0	6.894	13.94	5.70	1.35
	164.33	15.70	65.96	0.00	0.0411	6.84	301.1	249.18	0.0496	381.3	6.863	13.88	5.64	1.35
	165.34	15.71	65.96	0.00	0.0407	6.77	297.7	246.31	0.0493	379.3	6.827	13.81	5.56	1.36
	166.33	15.71	65.96	0.00	0.0400	6.64	292.0	241.66	0.0490	376.6	6.778	13.71	5.46	1.35
	167.34	15.71	65.96	0.00	0.0395	6.54	287.7	238.08	0.0488	373.7	6.727	13.61	5.35	1.35
	168.33	15.71	65.93	0.00	0.0391	6.48	284.9	235.88	0.0486	371.7	6.691	13.54	5.27	1.35
	169.34	15.71	65.96	0.00	0.0387	6.38	280.8	232.37	0.0484	369.0	6.642	13.44	5.17	1.35
	170.33	15.71	65.93	0.00	0.0382	6.28	276.4	228.83	0.0481	366.8	6.603	13.36	5.08	1.35
	171.34	15.70	65.96	0.00	0.0376	6.19	272.2	225.21	0.0478	364.3	6.557	13.26	4.98	1.36
	172.33	15.73	65.93	0.00	0.0371	6.09	267.8	221.69	0.0476	361.9	6.515	13.18	4.89	1.35
	173.34	15.73	65.96	0.00	0.0365	5.98	263.2	217.78	0.0472	358.9	6.461	13.07	4.77	1.35
	174.33	15.73	65.93	0.00	0.0359	5.87	258.2	213.75	0.0471	356.1	6.409	12.97	4.66	1.35
	175.33	15.73	65.91	0.00	0.0352	5.74	252.4	209.00	0.0468	353.2	6.358	12.87	4.54	1.35
	176.34	15.71	65.94	0.00	0.0345	5.62	247.2	204.63	0.0464	349.6	6.293	12.73	4.40	1.36
	177.33	15.73	65.96	0.00	0.0340	5.51	242.3	200.49	0.0461	346.7	6.240	12.62	4.28	1.36
	178.34	15.74	65.96	0.00	0.0334	5.40	237.6	196.66	0.0458	344.0	6.192	12.53	4.17	1.35
	181.81	15.73	65.96	0.00	0.0328	5.29	233.0	192.79	0.0455	341.0	6.138	12.42	4.04	1.36
	181.81	15.73	65.96	0.00	0.0322	5.20	228.8	189.34	0.0453	338.1	6.085	12.31	3.92	1.36
	181.83	15.73	65.96	0.00	0.0315	5.08	223.3	184.80	0.0449	334.7	6.025	12.19	3.78	1.36
	182.34	15.73	65.96	0.00	0.0308	4.95	218.0	180.39	0.0446	331.9	5.975	12.09	3.66	1.36
	183.33	15.76	65.96	0.00	0.0301	4.83	212.3	175.74	0.0443	329.1	5.924	11.98	3.54	1.36
	184.34	15.74	65.93	0.00	0.0296	4.72	207.7	171.98	0.0440	325.6	5.861	11.86	3.39	1.36
	185.33	15.76	65.96	0.00	0.0289	4.60	202.2	167.35	0.0436	322.2	5.800	11.73	3.24	1.36
	186.34	15.74	65.96	0.00	0.0283	4.50	197.9	163.80	0.0434	319.4	5.749	11.63	3.11	1.36
	187.41	15.74	65.96	0.00	0.0278	4.41	194.2	160.74	0.0430	317.0	5.707	11.54	3.01	1.36
	188.33	15.74	65.93	0.00	0.0272	4.31	189.8	157.13	0.0428	314.8	5.666	11.47	2.91	1.36
	189.34	15.74	65.96	0.00	0.0266	4.22	185.5	153.55	0.0426	311.8	5.613	11.36	2.78	1.35
	190.33	15.74	65.93	0.00	0.0259	4.09	179.8	148.86	0.0423	309.7	5.574	11.28	2.68	1.36
	191.34	15.73	65.96	0.00	0.0250	3.95	173.8	143.81	0.0419	306.2	5.511	11.15	2.52	1.36
	192.33	15.74	65.96	0.00	0.0243	3.81	167.8	138.84	0.0416	302.3	5.441	11.01	2.34	1.36
	193.34	15.74	65.93	0.00	0.0236	3.72	163.8	135.61	0.0412	299.9	5.398	10.92	2.23	1.36
	194.33	15.76	65.96	0.00	0.0229	3.59	157.8	130.62	0.0409	296.5	5.337	10.80	2.07	1.36
	195.34	15.76	65.93	0.00	0.0221	3.48	153.0	126.69	0.0405	293.6	5.284	10.69	1.93	1.36
	196.33	15.74	65.96	0.00	0.0214	3.34	146.8	121.48	0.0403	290.9	5.236	10.59	1.80	1.36
	197.34	15.76	65.96	0.00	0.0205	3.20	140.9	116.59	0.0399	287.2	5.170	10.46	1.62	1.36
	198.41	15.74	65.96	0.00	0.0199	3.10	136.2	112.71	0.0395	283.5	5.104	10.33	1.44	1.36
	199.34	15.78	65.96	0.00	0.0193	2.99	131.4	108.77	0.0392	280.9	5.056	10.23	1.31	1.36
	200.34	15.78	65.96	0.00	0.0184	2.85	125.6	103.95	0.0389	277.4	4.993	10.10	1.14	1.36
	201.33	15.81	65.93	0.00	0.0175	2.70	118.9	98.45	0.0385	274.3	4.938	10.00	0.99	1.36
	202.34	15.76	65.96	0.00	0.0167	2.58	113.6	94.03	0.0381	270.5	4.869	9.85	0.79	1.36
	203.33	15.78	65.96	0.00	0.0161	2.48	109.2	90.41	0.0378	267.7	4.819	9.75	0.65	1.36
	204.34	15.78	65.96	0.00	0.0150	2.31	101.8	84.28	0.0373	263.4	4.741	9.59	0.42	1.36
	205.33	15.78	65.96	0.00	0.0139	2.15	94.6	78.27	0.0368	259.5	4.671	9.45	0.22	1.36
	206.34	15.78	65.96	0.00	0.0130	1.99	87.7	72.56	0.0365	255.8	4.604	9.31	0.02	1.36
	207.33	15.78	65.93	0.00	0.0123	1.88	82.7	68.48	0.0361	251.9	4.534	9.18	-0.19	1.36
	208.34	15.79	65.96	0.00	0.0112	1.74	76.5	63.30	0.0356	248.8	4.478	9.06	-0.36	1.36
	209.33	15.79	65.93	0.00	0.0103	1.58	69.6	57.66	0.0352	244.9	4.409	8.92	-0.58	1.36
	210.34	15.78	65.94	0.00	0.0094	1.44	63.5	52.61	0.0348	241.2	4.341	8.79	-0.79	1.36
	211.34	15.79	65.96	0.00	0.0087	1.34	58.9	48.79	0.0344	238.3	4.289	8.68	-0.95	1.36
	212.33	15.79	65.98	0.00	0.0076	1.18	51.8	42.86	0.0340	234.8	4.226	8.55	-1.16	1.36
	213.34	15.79	65.96	0.00	0.0064	0.99	43.6	36.07	0.0336	230.4	4.148	8.39	-1.41	1.36
	214.33	15.79	65.96	0.00	0.0054	0.84	37.1	30.75	0.0332	226.5	4.076	8.25	-1.65	1.36
	215.34	15.79	65.96	0.00	0.0043	0.67	29.5	24.41	0.0327	222.6	4.007	8.11	-1.88	1.36
	216.33	15.79	65.96	0.00	0.0035	0.54	23.7	19.62	0.0322	218.9	3.941	7.97	-2.11	1.36
	217.34	15.81	65.96	0.00	0.0022	0.37	16.2	13.44	0.0317	214.7	3.865	7.82	-2.37	1.36
	218.34	15.81	65.96	0.00	0.0013	0.23	9.9	8.21	0.0313	210.9	3.796	7.68	-2.61	1.36
	219.34	15.81	65.98	0.00	0.0003	0.08	3.4	2.83	0.0308	207.4	3.734	7.55	-2.83	1.36
	220.34	15.79	65.96	0.00	-0.0008	-0.10	-4.4	-3.62	0.0303	203.2	3.657	7.40	-3.11	1.36
	221.34	15.79	65.93	0.00	-0.0020	-0.27	-12.0	-9.93	0.0298	198.8	3.579	7.24	-3.40	1.36
	222.34	15.79	65.96	0.00	-0.0029	-0.41	-18.2	-15.09	0.0294	194.9	3.509	7.10	-3.67	1.36
	223.42	15.83	65.93	0.00	-0.0041	-0.58	-25.7	-21.24	0.0288	191.3	3.444	6.97	-3.91	1.36
	224.34	15.81	65.96	0.00	-0.0052	-0.77	-33.8	-27.98	0.0284	187.3	3.371	6.82	-4.20	1.36
	225.42	15.81	65.93	0.00	-0.0060	-0.89	-39.1	-32.38	0.0279	183.7	3.307	6.69	-4.45	1.36
	226.34	15.83	65.93	0.00	-0.0073	-1.07	-47.1	-38.97	0.0275	179.7	3.235	6.55	-4.75	1.36
	227.33	15.83	65.98	0.00	-0.0084	-1.23	-54.2	-44.89	0.0270	175.9	3.166	6.40	-5.03	1.36
	228.34	15.83	65.96	0.00	-0.0097	-1.43	-63.1	-52.25	0.0264	171.2	3.081	6.23	-5.39	1.36
	229.33	15.83	65.96	0.00	-0.0107	-1.58	-69.6	-57.61	0.0258	167.5	3.016	6.10	-5.67	1.36
	230.34	15.83	65.96	0.00	-0.0121	-1.80	-79.1	-65.47	0.0253	163.1	2.936	5.94	-6.02	1.36
	231.41	15.83	65.96	0.00	-0.0134	-2.01	-88.4	-73.18	0.0247	158.4	2.852	5.77	-6.40	1.36
	232.34	15.83	65.96	0.00	-0.0146	-2.20	-96.7	-80.09	0.0242	153.9	2.771	5.61	-6.78	1.36
	233.34	15.83	65.93	0.00	-0.0159	-2.39	-105.0	-86.97	0.0236	150.1	2.702	5.47	-7.10	1.36
	234.34	15.83	65.96	0.00	-0.0168	-2.54	-111.6	-92.36	0.0231	146.2	2.631	5.32	-7.45	1.36
	235.34	15.84	65.94	0.00	-0.0179	-2.72	-119.8	-99.19	0.0227	142.8	2.571	5.20	-7.75	1.36
	236.34	15.84	65.98	0.00	-0.0192	-2.94	-129.2	-106.95	0.0220	138.4	2.492	5.04	-8.15	1.36
	237.34	15.84	65.96	0.00	-0.0206	-3.14	-138.1	-114.35	0.0215	134.1	2.413	4.88	-8.56	1.36
	238.33	15.84	65.96	0.00	-0.0221	-3.38	-148.9	-123.29	0.0208	128.8	2.319	4.69	-9.07	1.36
	239.34	15.83	65.93	0.00	-0.0232	-3.56	-156.9	-129.90	0.0201	124.9	2.248	4.55	-9.46	1.36
	240.42	15.86	65.96	0.00	-0.0245	-3.79	-166.9	-138.15	0.0195	120.2	2.163	4.38	-9.95	1.36
	241.34	15.86	65.96	0.00	-0.0256	-3.99	-175.5	-145.32	0.0189	116.1	2.091	4.23	-10.38	1.36
	242.34	15.86	65.96	0.00	-0.0269	-4.20	-184.7	-152.87	0.0183	112.1	2.017	4.08	-10.83	1.36
	243.34	15.86	65.96	0.00	-0.0284	-4.47	-196.6	-162.75	0.0177	106.7	1.921	3.89	-11.44	1.36
	244.34	15.86	65.96	0.00	-0.0296	-4.68	-206.1	-170.62	0.0169	102.2	1.839	3.72	-11.98	1.36
	245.34	15.86	65.96	0.00	-0.0307	-4.89	-215.0	-177.99	0.0164	98.5	1.773	3.59	-12.44	1.36
	246.34	15.86	65.93	0.00	-0.0317	-5.09	-223.9	-185.45	0.0158	94.4	1.700	3.44	-12.96	1.36
	247.34	15.87	65.96	0.00	-0.0332	-5.36	-235.9	-195.30	0.0152	90.6	1.631	3.30	-13.47	1.36
	248.34	15.86	65.91	0.00	-0.0342	-5.56	-244.7	-202.73	0.0146	86.2	1.551	3.14	-14.08	1.36
	249.33	15.87	65.93	0.00	-0.0352	-5.76	-253.4	-209.90	0.0140	83.2	1.498	3.03	-14.51	1.36
	250.34	15.86	65.94	0.00	-0.0369	-6.07	-267.2	-221.30	0.0134	78.3	1.409	2.85	-15.25	1.36
	251.33	15.87	65.93	0.00	-0.0380	-6.33	-278.6	-230.77	0.0126	73.7	1.327	2.69	-15.97	1.36
	252.34	15.87	65.96	0.00	-0.0389	-6.53	-287.1	-237.73	0.0121	70.0	1.260	2.55	-16.59	1.36
	253.33	15.87	65.96	0.00	-0.0401	-6.76	-297.5	-246.33	0.0115	66.4	1.196	2.42	-17.21	1.36
	254.34	15.87	65.96	0.00	-0.0410	-6.97	-306.6	-253.82	0.0110	62.8	1.131	2.29	-17.88	1.36
	255.34	15.87	65.96	0.00	-0.0418	-7.15	-314.6	-260.51	0.0105	60.0	1.080	2.19	-18.42	1.36
	256.34	15.87	65.96	0.00	-0.0429	-7.36	-323.8	-268.06	0.0100	56.9	1.025	2.07	-19.03	1.36
	257.34	15.87	65.96	0.00	-0.0441	-7.64	-336.1	-278.30	0.0096	54.1	0.973	1.97	-19.63	1.36
	258.34	15.86	65.96	0.00	-0.0454	-7.95	-349.9	-289.65	0.0089	50.7	0.912	1.85	-20.39	1.36
	259.34	15.89	65.96	0.00	-0.0469	-8.29	-364.6	-301.92	0.0083	47.2	0.849	1.72	-21.20	1.36
	260.34	15.89	65.96	0.00	-0.0480	-8.58	-377.4	-312.52	0.0076	42.8	0.771	1.56	-22.31	1.36
	261.34	15.89	65.98	0.00	-0.0494	-8.92	-392.6	-324.94	0.0070	39.1	0.704	1.42	-23.33	1.36
	262.33	15.91	65.94	0.00	-0.0506	-9.22	-405.8	-336.14	0.0065	36.1	0.650	1.32	-24.23	1.36
	263.34	15.89	65.96	0.00	-0.0513	-9.43	-414.8	-343.43	0.0058	32.2	0.580	1.17	-25.48	1.36
	264.42	15.89	65.94	0.00	-0.0522	-9.70	-426.7	-353.47	0.0054	29.0	0.522	1.06	-26.63	1.36
	265.34	15.91	65.93	0.00	-0.0529	-9.88	-434.6	-359.98	0.0050	27.5	0.495	1.00	-27.21	1.36
	266.34	15.92	65.93	0.00	-0.0539	-10.12	-445.2	-368.78	0.0045	24.5	0.441	0.89	-28.45	1.36
	267.34	15.91	65.96	0.00	-0.0548	-10.38	-456.9	-378.36	0.0039	20.9	0.377	0.76	-30.13	1.36
	268.34	15.91	65.96	0.00	-0.0562	-10.79	-474.6	-393.00	0.0031	16.9	0.304	0.62	-32.36	1.36
	269.34	15.91	65.99	0.00	-0.0575	-11.12	-489.5	-405.15	0.0026	14.2	0.256	0.52	-34.14	1.36
	270.34	15.91	65.96	0.00	-0.0590	-11.59	-509.9	-422.24	0.0022	12.1	0.218	0.44	-35.74	1.36
	271.34	15.91	65.96	0.00	-0.0604	-12.03	-529.5	-438.46	0.0016	7.4	0.134	0.27	-40.50	1.36
	272.34	15.91	65.99	0.00	-0.0618	-12.48	-549.2	-454.56	0.0007	4.4	0.078	0.16	-45.47	1.36
	273.42	15.92	65.96	0.00	-0.0628	-12.85	-565.6	-468.35	0.0001	0.8	0.014	0.03	-59.93	1.36
	274.34	15.92	65.96	0.00	-0.0636	-13.16	-579.2	-479.60	-0.0004	-1.2	-0.022	-0.04	-65.00	1.37
	275.42	15.92	65.96	0.00	-0.0646	-13.43	-590.8	-489.25	-0.0011	-5.0	-0.090	-0.18	-65.00	1.36
	276.34	15.92	65.93	0.00	-0.0657	-13.82	-608.1	-503.79	-0.0016	-7.7	-0.138	-0.28	-65.00	1.36
	277.34	15.91	65.96	0.00	-0.0671	-14.32	-630.2	-521.83	-0.0023	-10.9	-0.197	-0.40	-65.00	1.36
	278.34	15.91	65.96	0.00	-0.0684	-14.80	-651.3	-539.33	-0.0031	-14.6	-0.262	-0.53	-65.00	1.36
	279.34	15.92	65.93	0.00	-0.0697	-15.31	-673.4	-557.89	-0.0038	-18.4	-0.332	-0.67	-65.00	1.36
	280.34	15.91	65.93	0.00	-0.0711	-15.88	-698.8	-578.83	-0.0045	-21.5	-0.387	-0.78	-65.00	1.37
	281.34	15.94	65.96	0.00	-0.0726	-16.45	-723.9	-599.53	-0.0051	-24.5	-0.441	-0.89	-65.00	1.36
	282.34	15.94	65.96	0.00	-0.0742	-17.08	-751.7	-622.54	-0.0060	-28.5	-0.513	-1.04	-65.00	1.36
	283.34	15.94	65.96	0.00	-0.0762	-17.93	-789.1	-653.50	-0.0067	-32.5	-0.585	-1.18	-65.00	1.36
	284.42	15.94	65.93	0.00	-0.0784	-18.92	-832.4	-689.60	-0.0080	-37.3	-0.672	-1.36	-65.00	1.36
	285.34	15.94	65.96	0.00	-0.0801	-19.85	-873.5	-723.36	-0.0091	-42.0	-0.757	-1.53	-65.00	1.36
	286.36	15.94	65.96	0.00	-0.0812	-20.39	-897.0	-742.87	-0.0100	-45.7	-0.822	-1.66	-65.00	1.37
	287.34	15.94	65.96	0.00	-0.0819	-20.74	-912.4	-755.64	-0.0104	-48.2	-0.867	-1.76	-65.00	1.36
	288.34	15.94	65.96	0.00	-0.0835	-21.52	-946.9	-784.16	-0.0110	-50.3	-0.905	-1.83	-65.00	1.36
	289.34	15.94	65.93	0.00	-0.0854	-22.51	-990.6	-820.69	-0.0120	-53.5	-0.963	-1.95	-65.00	1.36
	290.34	15.96	65.93	0.00	-0.0870	-23.35	-1027.6	-851.35	-0.0128	-57.6	-1.036	-2.10	-65.00	1.37
	291.34	15.97	65.96	0.00	-0.0882	-24.06	-1058.7	-876.85	-0.0137	-60.6	-1.090	-2.21	-65.00	1.37
	292.34	15.96	65.93	0.00	-0.0896	-24.86	-1093.7	-906.13	-0.0144	-64.0	-1.152	-2.33	-65.00	1.37
	293.34	15.96	65.96	0.00	-0.0911	-25.82	-1136.3	-941.05	-0.0154	-67.4	-1.213	-2.45	-65.00	1.37
	294.34	15.96	65.96	0.00	-0.0926	-26.71	-1175.2	-973.26	-0.0164	-70.8	-1.274	-2.58	-65.00	1.37
	295.42	15.97	65.93	0.00	-0.0939	-27.61	-1214.7	-1006.48	-0.0171	-73.3	-1.320	-2.67	-65.00	1.37
	296.34	15.97	65.96	0.00	-0.0962	-28.88	-1270.9	-1052.58	-0.0178	-76.4	-1.376	-2.79	-65.00	1.37
	297.36	15.97	65.96	0.00	-0.0985	-30.59	-1345.8	-1114.62	-0.0190	-79.6	-1.433	-2.90	-65.00	1.37
	298.34	15.96	65.96	0.00	-0.1005	-32.10	-1412.3	-1169.64	-0.0205	-84.8	-1.526	-3.09	-65.00	1.37
	299.36	15.97	65.96	0.00	-0.1025	-33.73	-1484.1	-1229.16	-0.0215	-88.0	-1.584	-3.21	-65.00	1.37
	300.34	15.96	65.96	0.00	-0.1039	-34.72	-1527.5	-1265.06	-0.0226	-91.5	-1.647	-3.33	-65.00	1.37
	301.36	15.97	65.93	0.00	-0.1054	-35.98	-1583.3	-1311.90	-0.0235	-93.9	-1.690	-3.42	-65.00	1.37
	302.34	15.96	65.96	0.00	-0.1073	-37.49	-1649.6	-1366.21	-0.0246	-96.9	-1.744	-3.53	-65.00	1.37
	303.34	15.99	65.93	0.00	-0.1094	-39.20	-1724.9	-1429.26	-0.0258	-100.6	-1.811	-3.67	-65.00	1.37
	304.34	15.99	65.96	0.00	-0.1116	-41.22	-1813.6	-1502.15	-0.0269	-103.8	-1.868	-3.78	-65.00	1.37
	305.34	15.99	65.96	0.00	-0.1144	-43.77	-1926.0	-1595.25	-0.0285	-107.3	-1.931	-3.91	-65.00	1.37
	306.34	15.99	65.93	0.00	-0.1170	-46.56	-2048.8	-1697.62	-0.0301	-111.3	-2.003	-4.06	-65.00	1.37
	307.34	15.99	65.96	0.00	-0.1191	-48.45	-2131.8	-1765.75	-0.0315	-114.4	-2.059	-4.17	-65.00	1.37
	308.42	15.99	65.96	0.00	-0.1217	-51.30	-2257.2	-1869.58	-0.0329	-117.5	-2.115	-4.28	-65.00	1.37
	309.34	15.99	65.93	0.00	-0.1232	-53.31	-2345.7	-1943.64	-0.0344	-120.6	-2.170	-4.40	-65.00	1.37
	310.36	15.99	65.96	0.00	-0.1257	-55.76	-2453.4	-2032.11	-0.0358	-123.0	-2.215	-4.48	-65.00	1.37
	311.34	15.99	65.96	0.00	-0.1288	-59.76	-2629.6	-2178.02	-0.0376	-126.4	-2.274	-4.61	-65.00	1.37
	312.36	15.99	65.92	0.00	-0.1319	-63.77	-2805.8	-2325.60	-0.0395	-129.5	-2.331	-4.72	-65.00	1.37
	313.34	16.00	65.96	0.00	-0.1338	-66.78	-2938.2	-2433.81	-0.0412	-132.2	-2.379	-4.82	-65.00	1.37
	314.34	16.00	65.96	0.00	-0.1345	-68.28	-3004.5	-2488.69	-0.0453	-135.7	-2.443	-4.95	-65.00	1.37
	315.34	16.00	65.98	0.00	-0.1343	-67.83	-2984.7	-2471.47	-0.0445	-136.1	-2.451	-4.96	-65.00	1.37
	316.34	16.00	65.96	0.00	-0.1313	-64.52	-2838.9	-2351.53	-0.0540	-143.1	-2.576	-5.22	-65.00	1.37
	317.34	16.02	65.93	0.00	-0.1253	-57.19	-2516.2	-2085.15	-0.0520	-142.7	-2.569	-5.20	-65.00	1.37
	318.34	16.00	65.96	0.00	-0.1206	-51.13	-2249.9	-1863.66	-0.0485	-141.3	-2.543	-5.15	-65.00	1.37
	319.42	16.02	65.96	0.00	-0.1121	-43.37	-1908.2	-1580.70	-0.0542	-143.1	-2.575	-5.21	-65.00	1.37
	320.34	16.02	65.93	0.00	-0.1052	-37.03	-1629.4	-1350.29	-0.0484	-141.2	-2.542	-5.15	-65.00	1.37
	321.36	16.02	65.96	0.00	-0.0972	-30.43	-1339.0	-1109.20	-0.0435	-138.2	-2.488	-5.04	-65.00	1.37
	322.34	16.02	65.96	0.00	-0.0920	-27.19	-1196.5	-991.14	-0.0390	-129.6	-2.333	-4.72	-65.00	1.37
	323.36	16.00	65.96	0.00	-0.0837	-22.27	-980.0	-811.79	-0.0379	-128.2	-2.308	-4.67	-65.00	1.37
	324.36	16.02	65.94	0.00	-0.0777	-19.17	-843.7	-699.11	-0.0355	-124.6	-2.243	-4.54	-65.00	1.37
	325.36	16.04	65.96	0.00	-0.0717	-16.46	-724.2	-599.91	-0.0325	-117.6	-2.116	-4.28	-65.00	1.37
	326.34	16.02	65.96	0.00	-0.0666	-14.62	-643.3	-532.87	-0.0287	-105.6	-1.900	-3.85	-65.00	1.37
	327.36	16.02	65.96	0.00	-0.0602	-12.57	-552.9	-458.04	-0.0269	-97.4	-1.753	-3.55	-65.00	1.37
	328.36	16.05	65.96	0.00	-0.0530	-10.30	-453.0	-375.33	-0.0264	-103.2	-1.857	-3.76	-65.00	1.37
	329.36	16.02	65.93	0.00	-0.0466	-8.47	-372.7	-308.89	-0.0230	-94.6	-1.702	-3.45	-65.00	1.37
	330.36	16.04	65.93	0.00	-0.0382	-7.08	-311.4	-258.08	-0.0213	-89.9	-1.618	-3.28	-65.00	1.37
	331.36	16.05	65.93	0.00	-0.0322	-5.56	-244.4	-202.58	-0.0177	-78.1	-1.406	-2.85	-65.00	1.37
	332.36	16.05	65.96	0.00	-0.0268	-4.47	-196.7	-162.94	-0.0142	-68.5	-1.233	-2.50	-65.00	1.37
	333.36	16.07	65.96	0.00	-0.0256	-4.11	-180.7	-149.72	-0.0104	-46.6	-0.838	-1.70	-65.00	1.37
	334.38	16.07	65.96	0.00	-0.0224	-2.21	-97.1	-80.42	-0.0098	-42.3	-0.761	-1.54	-65.00	1.37
	335.36	16.04	65.94	0.00	-0.0086	-1.51	-66.3	-54.95	-0.0078	-35.4	-0.637	-1.29	-65.00	1.37
	336.38	16.07	65.93	0.00	-0.0066	-0.30	-13.2	-10.96	-0.0064	-29.5	-0.531	-1.08	-65.00	1.37
	337.36	16.07	65.96	0.00	-0.0136	-1.96	-86.1	-71.36	-0.0062	-30.0	-0.539	-1.09	-65.00	1.37
	338.36	16.05	65.96	0.00	-0.0133	-2.03	-89.5	-74.15	-0.0058	-27.6	-0.496	-1.01	-65.00	1.37
	339.36	16.07	65.93	0.00	-0.0094	-1.46	-64.3	-53.25	-0.0033	-16.5	-0.297	-0.60	-65.00	1.37
	340.36	16.07	65.96	0.00	-0.0066	-1.15	-50.8	-42.06	0.0000	-10.8	-0.195	-0.39	-65.00	1.37
	341.36	16.07	65.93	0.00	-0.0075	-1.16	-50.9	-42.20	0.0018	3.1	0.056	0.11	-48.45	1.37
	342.36	16.07	65.93	0.00	-0.0050	-0.79	-34.8	-28.84	0.0024	9.9	0.178	0.36	-37.76	1.37
	343.36	16.07	65.99	0.00	-0.0022	-0.44	-19.3	-15.95	0.0013	17.2	0.309	0.63	-32.18	1.37
	344.36	16.09	65.96	0.00	-0.0004	-0.09	-4.0	-3.33	0.0041	18.6	0.335	0.68	-31.35	1.37
	345.36	16.09	65.96	0.00	0.0016	0.18	7.9	6.51	0.0048	28.4	0.511	1.04	-26.86	1.37
	346.36	16.09	65.93	0.00	0.0041	0.53	23.2	19.19	0.0039	23.8	0.429	0.87	-28.75	1.37
	347.36	16.09	65.96	0.00	0.0070	0.92	40.3	33.37	0.0037	41.9	0.754	1.53	-22.55	1.37
	348.36	16.07	65.96	0.00	0.0088	1.28	56.4	46.73	0.0092	46.8	0.843	1.71	-21.28	1.37
	349.34	16.09	65.96	0.00	0.0111	1.56	68.7	56.91	0.0119	64.4	1.159	2.35	-17.58	1.37
	350.36	16.09	65.93	0.00	0.0154	2.16	95.2	78.91	0.0145	87.6	1.577	3.20	-13.87	1.37
	351.44	16.09	65.96	0.00	0.0176	2.76	121.6	100.76	0.0172	99.8	1.797	3.64	-12.27	1.37
	352.36	16.10	65.93	0.00	0.0197	2.97	130.8	108.40	0.0203	121.7	2.191	4.44	-9.78	1.37
	353.44	16.09	65.93	0.00	0.0221	3.47	152.5	126.43	0.0234	143.6	2.584	5.24	-7.67	1.37
	354.36	16.10	65.96	0.00	0.0239	3.69	162.6	134.71	0.0222	125.5	2.259	4.58	-9.39	1.37
	355.36	16.10	65.96	0.00	0.0270	4.17	183.3	151.91	0.0188	114.5	2.060	4.17	-10.55	1.37
	356.36	16.13	65.91	0.00	0.0301	4.73	208.2	172.66	0.0227	133.2	2.398	4.86	-8.63	1.37
	357.36	16.12	65.93	0.00	0.0326	5.21	229.1	189.89	0.0235	142.6	2.567	5.20	-7.75	1.37
	358.36	16.12	65.96	0.00	0.0353	5.68	249.8	207.01	0.0249	155.4	2.797	5.67	-6.64	1.37
	359.36	16.13	65.96	0.00	0.0376	6.13	269.8	223.61	0.0279	173.8	3.128	6.34	-5.18	1.37
	360.36	16.12	65.96	0.00	0.0404	6.62	291.4	241.48	0.0262	168.7	3.037	6.15	-5.57	1.37
	361.36	16.12	65.96	0.00	0.0430	7.14	314.2	260.33	0.0295	186.3	3.353	6.79	-4.26	1.37
	362.36	16.13	65.98	0.00	0.0450	7.58	333.5	276.25	0.0352	239.4	4.310	8.73	-0.87	1.37
	363.36	16.10	65.96	0.00	0.0471	8.02	352.8	292.36	0.0361	245.7	4.423	8.96	-0.52	1.37
	364.34	16.13	65.96	0.00	0.0492	8.45	371.6	307.93	0.0387	260.0	4.680	9.48	0.26	1.37
	365.36	16.13	65.98	0.00	0.0499	8.59	377.7	312.93	0.0437	320.1	5.762	11.67	3.16	1.37
	366.36	16.13	65.96	0.00	0.0513	8.89	391.1	324.14	0.0432	315.2	5.674	11.49	2.95	1.37
	367.36	16.13	65.96	0.00	0.0528	9.21	405.1	335.71	0.0448	326.1	5.870	11.89	3.43	1.37
	368.36	16.13	65.93	0.00	0.0546	9.62	423.2	350.83	0.0462	333.0	5.994	12.15	3.72	1.37
	369.36	16.13	65.96	0.00	0.0563	9.99	439.3	364.09	0.0462	336.8	6.063	12.28	3.89	1.37
	370.36	16.13	65.93	0.00	0.0581	10.34	454.9	377.12	0.0461	354.4	6.380	12.93	4.61	1.37
	371.36	16.17	65.96	0.00	0.0589	10.63	467.5	387.47	0.0522	383.9	6.910	14.00	5.76	1.37
	372.36	16.15	65.96	0.00	0.0597	10.75	473.2	392.18	0.0529	416.5	7.498	15.19	6.94	1.37
	373.44	16.15	65.96	0.00	0.0601	10.89	479.2	397.12	0.0557	439.6	7.913	16.03	7.73	1.37
	374.36	16.17	65.96	0.00	0.0606	11.00	484.2	401.28	0.0546	433.6	7.805	15.81	7.53	1.37
	375.38	16.17	65.96	0.00	0.0603	10.95	482.0	399.49	0.0560	442.4	7.963	16.13	7.83	1.37
	376.36	16.15	65.96	0.00	0.0602	10.90	479.8	397.65	0.0573	462.0	8.317	16.85	8.46	1.37
	377.36	16.17	65.96	0.00	0.0601	10.89	479.3	397.23	0.0577	468.5	8.433	17.09	8.67	1.37
	378.36	16.17	65.98	0.00	0.0606	10.98	483.0	400.19	0.0547	448.9	8.081	16.37	8.04	1.37
	379.36	16.15	65.93	0.00	0.0605	10.97	482.7	400.18	0.0558	451.1	8.119	16.45	8.11	1.37
	380.36	16.17	65.96	0.00	0.0609	11.04	485.8	402.60	0.0531	427.3	7.692	15.58	7.32	1.37
	381.36	16.18	65.94	0.00	0.0606	11.00	484.0	401.30	0.0554	441.1	7.939	16.09	7.78	1.37
	382.36	16.18	65.93	0.00	0.0607	11.04	485.7	402.76	0.0556	434.9	7.828	15.87	7.58	1.37
	383.36	16.18	65.96	0.00	0.0605	10.97	482.9	400.21	0.0554	452.5	8.146	16.50	8.16	1.37
	384.36	16.18	65.96	0.00	0.0605	11.01	484.5	401.56	0.0556	444.2	7.996	16.20	7.89	1.37
	385.36	16.18	65.96	0.00	0.0614	11.11	489.0	405.34	0.0539	427.8	7.700	15.60	7.33	1.37
	386.44	16.20	65.96	0.00	0.0625	11.42	502.3	416.32	0.0535	426.7	7.680	15.56	7.30	1.37
	387.36	16.20	65.94	0.00	0.0623	11.41	502.0	416.21	0.0549	436.2	7.851	15.91	7.62	1.37
	388.38	16.18	65.93	0.00	0.0613	11.10	488.3	404.90	0.0557	449.3	8.088	16.39	8.05	1.37
	389.36	16.20	65.96	0.00	0.0610	11.12	489.4	405.64	0.0569	460.3	8.285	16.79	8.41	1.37
	390.36	16.20	65.93	0.00	0.0606	10.98	483.3	400.79	0.0561	457.0	8.226	16.67	8.30	1.37
	391.36	16.20	65.93	0.00	0.0603	10.95	481.6	399.39	0.0566	455.6	8.200	16.62	8.26	1.37
	392.36	16.20	65.93	0.00	0.0604	10.96	482.3	399.97	0.0564	450.7	8.113	16.45	8.10	1.37
	393.36	16.20	65.93	0.00	0.0603	10.95	481.7	399.43	0.0574	465.4	8.378	16.98	8.57	1.37
	394.36	16.22	65.96	0.00	0.0607	11.05	486.3	403.12	0.0548	427.2	7.689	15.58	7.32	1.37
	395.36	16.22	65.96	0.00	0.0607	11.02	484.8	401.88	0.0546	435.7	7.843	15.89	7.61	1.37
	396.36	16.23	65.96	0.00	0.0610	10.99	483.5	400.85	0.0532	450.4	8.107	16.43	8.09	1.37
	397.38	16.22	65.96	0.00	0.0606	11.01	484.7	401.75	0.0554	438.4	7.891	15.99	7.69	1.37
	398.36	16.23	65.93	0.00	0.0605	11.04	485.6	402.74	0.0561	439.0	7.902	16.02	7.72	1.37
	399.38	16.22	65.96	0.00	0.0604	10.99	483.5	400.82	0.0574	454.2	8.176	16.57	8.22	1.37
	400.36	16.23	65.96	0.00	0.0610	11.09	488.0	404.52	0.0529	421.1	7.580	15.36	7.11	1.37
	401.38	16.23	65.93	0.00	0.0607	11.04	485.6	402.74	0.0549	433.3	7.799	15.81	7.52	1.37
	402.36	16.22	65.96	0.00	0.0605	10.99	483.4	400.70	0.0561	450.7	8.113	16.44	8.10	1.37
	403.36	16.23	65.93	0.00	0.0606	11.02	484.7	401.96	0.0565	444.3	7.997	16.21	7.89	1.37
	404.36	16.23	65.96	0.00	0.0606	11.02	484.9	402.00	0.0560	441.2	7.941	16.09	7.79	1.37
	405.36	16.25	65.96	0.00	0.0606	11.00	484.0	401.24	0.0557	444.1	7.995	16.20	7.89	1.37
	406.36	16.25	65.98	0.00	0.0609	10.97	482.9	400.20	0.0532	454.3	8.178	16.57	8.22	1.37
	407.36	16.25	65.93	0.00	0.0614	11.16	490.9	407.14	0.0510	400.0	7.201	14.60	6.36	1.37
	408.36	16.23	65.96	0.00	0.0619	11.33	498.6	413.35	0.0516	410.6	7.390	14.98	6.74	1.37
	409.36	16.25	65.93	0.00	0.0611	11.15	490.6	406.88	0.0525	401.5	7.226	14.65	6.41	1.37
	410.44	16.26	65.96	0.00	0.0614	11.19	492.2	408.03	0.0505	390.6	7.031	14.25	6.02	1.37
	411.36	16.25	65.96	0.00	0.0613	11.11	489.0	405.37	0.0514	413.2	7.438	15.07	6.83	1.37
	412.38	16.26	65.96	0.00	0.0613	11.08	487.4	404.11	0.0516	422.2	7.600	15.40	7.15	1.37
	413.36	16.25	65.96	0.00	0.0608	11.03	485.5	402.50	0.0540	434.7	7.824	15.86	7.57	1.37
	414.38	16.25	65.96	0.00	0.0611	11.23	494.3	409.82	0.0533	421.0	7.577	15.36	7.10	1.37
	415.36	16.28	65.96	0.00	0.0615	11.16	491.0	407.10	0.0520	406.7	7.320	14.84	6.60	1.37
	416.36	16.28	65.96	0.00	0.0608	11.06	486.6	403.44	0.0551	433.4	7.801	15.81	7.53	1.37
	417.36	16.28	65.96	0.00	0.0609	11.05	486.3	403.24	0.0546	440.2	7.924	16.06	7.76	1.37
	418.36	16.28	65.94	0.00	0.0613	11.17	491.3	407.49	0.0520	401.3	7.223	14.64	6.41	1.37
	419.36	16.30	65.98	0.00	0.0613	11.16	490.9	406.89	0.0513	398.3	7.169	14.53	6.30	1.37
	420.36	16.28	65.96	0.00	0.0613	11.14	490.2	406.42	0.0514	409.5	7.370	14.94	6.70	1.37
	421.38	16.30	65.96	0.00	0.0611	11.14	490.2	406.49	0.0519	405.0	7.289	14.77	6.54	1.37
	422.36	16.30	65.96	0.00	0.0620	11.23	494.1	409.73	0.0524	413.7	7.447	15.10	6.85	1.37
	423.38	16.30	65.96	0.00	0.0625	11.12	489.3	405.74	0.0537	424.4	7.639	15.48	7.22	1.37
	424.36	16.30	65.94	0.00	0.0611	11.06	486.8	403.76	0.0533	430.6	7.750	15.71	7.43	1.37
	425.38	16.30	65.93	0.00	0.0606	11.02	485.0	402.35	0.0554	438.2	7.888	16.00	7.69	1.37
	426.36	16.33	65.96	0.00	0.0603	11.00	484.0	401.38	0.0575	444.9	8.009	16.23	7.92	1.37
	427.38	16.31	65.96	0.00	0.0606	11.00	483.9	401.22	0.0563	455.5	8.198	16.62	8.26	1.37
	428.36	16.31	65.96	0.00	0.0604	10.96	482.2	399.82	0.0575	461.7	8.311	16.85	8.46	1.37
	429.36	16.30	65.96	0.00	0.0604	10.96	482.1	399.72	0.0573	459.3	8.268	16.76	8.38	1.37
	430.36	16.31	65.93	0.00	0.0604	10.97	482.8	400.50	0.0573	461.0	8.298	16.83	8.44	1.37
	431.36	16.33	65.94	0.00	0.0609	11.07	487.2	404.16	0.0537	433.0	7.793	15.80	7.52	1.37
	432.44	16.31	65.94	0.00	0.0611	11.02	484.8	402.13	0.0528	440.5	7.928	16.08	7.77	1.37
	433.36	16.33	65.96	0.00	0.0609	11.02	485.0	402.21	0.0538	442.0	7.955	16.13	7.82	1.37
	434.38	16.33	65.96	0.00	0.0607	11.01	484.5	401.75	0.0557	447.4	8.053	16.32	8.00	1.37
	435.36	16.35	65.93	0.00	0.0605	11.02	485.0	402.38	0.0556	437.6	7.877	15.97	7.68	1.37
	436.38	16.35	65.93	0.00	0.0611	11.10	488.3	405.10	0.0524	416.7	7.501	15.21	6.96	1.37
	437.36	16.36	65.94	0.00	0.0609	11.05	486.2	403.37	0.0530	428.4	7.711	15.64	7.36	1.37
	438.38	16.33	65.96	0.00	0.0609	11.09	488.1	404.78	0.0531	417.3	7.511	15.23	6.98	1.37
	439.36	16.35	65.96	0.00	0.0607	11.03	485.2	402.41	0.0551	434.5	7.821	15.85	7.57	1.37
	440.36	16.35	65.96	0.00	0.0608	11.04	485.8	402.89	0.0538	430.7	7.753	15.72	7.44	1.37
	441.36	16.35	65.98	0.00	0.0606	11.02	484.7	401.82	0.0556	442.0	7.956	16.12	7.82	1.37
	442.36	16.38	65.96	0.00	0.0608	11.09	488.2	404.89	0.0550	418.3	7.529	15.26	7.02	1.37
	443.44	16.36	65.94	0.00	0.0605	10.99	483.7	401.28	0.0562	448.5	8.074	16.37	8.04	1.37
	444.36	16.36	65.96	0.00	0.0607	11.04	485.7	402.84	0.0548	435.6	7.841	15.90	7.61	1.37
	445.38	16.36	65.93	0.00	0.0610	11.23	494.2	409.99	0.0534	422.5	7.606	15.43	7.16	1.37
	446.36	16.38	65.96	0.00	0.0608	11.05	486.1	403.19	0.0549	434.4	7.819	15.85	7.57	1.37
	447.38	16.38	65.96	0.00	0.0606	11.04	485.6	402.74	0.0549	436.1	7.850	15.91	7.63	1.37
	448.36	16.38	65.96	0.00	0.0610	11.06	486.8	403.77	0.0530	428.0	7.704	15.62	7.35	1.37
	449.38	16.40	65.96	0.00	0.0608	11.04	485.8	402.93	0.0542	434.3	7.817	15.85	7.56	1.37
	450.36	16.40	65.96	0.00	0.0608	10.99	483.4	400.95	0.0547	460.0	8.280	16.79	8.41	1.37
	451.38	16.38	65.96	0.00	0.0605	11.00	484.0	401.42	0.0560	447.4	8.054	16.33	8.00	1.37
	452.36	16.40	65.96	0.00	0.0606	11.02	484.7	402.05	0.0559	444.1	7.993	16.21	7.89	1.37
	453.38	16.40	65.96	0.00	0.0611	11.11	488.9	405.50	0.0523	412.9	7.433	15.07	6.83	1.37
	454.36	16.38	65.96	0.00	0.0611	11.12	489.3	405.80	0.0524	411.8	7.413	15.03	6.79	1.37
	455.36	16.40	65.96	0.00	0.0610	11.10	488.6	405.28	0.0529	416.2	7.492	15.19	6.94	1.37
	456.36	16.40	65.96	0.00	0.0612	11.14	490.1	406.48	0.0517	404.9	7.288	14.78	6.54	1.37
	457.36	16.40	65.96	0.00	0.0612	11.14	490.2	406.57	0.0517	405.0	7.291	14.78	6.55	1.37
	458.38	16.41	65.96	0.00	0.0613	11.16	490.8	407.14	0.0519	404.3	7.278	14.76	6.52	1.37
	459.36	16.41	65.96	0.00	0.0611	11.13	489.6	406.16	0.0520	408.5	7.353	14.91	6.67	1.37
	460.38	16.41	65.94	0.00	0.0611	11.13	489.6	406.23	0.0526	408.6	7.354	14.92	6.68	1.37
	461.36	16.43	65.96	0.00	0.0608	11.07	486.9	403.89	0.0547	429.8	7.737	15.69	7.42	1.37
	462.38	16.43	65.96	0.00	0.0606	11.04	485.6	402.87	0.0551	433.9	7.811	15.84	7.56	1.37
	463.36	16.43	65.96	0.00	0.0607	11.06	486.6	403.63	0.0563	440.7	7.932	16.08	7.78	1.37
	464.38	16.44	65.96	0.00	0.0613	11.17	491.6	407.80	0.0517	399.7	7.194	14.59	6.36	1.37
	465.36	16.43	65.94	0.00	0.0611	11.09	487.8	404.81	0.0533	424.0	7.632	15.48	7.22	1.37
	466.38	16.43	65.96	0.00	0.0614	11.18	491.9	408.06	0.0512	397.3	7.152	14.50	6.27	1.37
	467.44	16.43	65.96	0.00	0.0614	11.20	492.7	408.70	0.0503	390.5	7.029	14.25	6.02	1.37
	468.36	16.43	65.99	0.00	0.0614	11.20	492.9	408.75	0.0502	390.2	7.023	14.24	6.01	1.37
	469.44	16.43	65.98	0.00	0.0614	11.19	492.2	408.13	0.0502	388.4	6.991	14.17	5.94	1.37
	470.36	16.44	65.93	0.00	0.0613	11.18	491.8	408.15	0.0509	388.8	6.998	14.20	5.96	1.37
	471.38	16.44	65.93	0.00	0.0613	11.16	491.1	407.57	0.0510	394.7	7.105	14.41	6.18	1.37
	472.36	16.44	65.93	0.00	0.0615	11.17	491.7	408.06	0.0503	399.6	7.193	14.59	6.35	1.37
	473.38	16.44	65.94	0.00	0.0614	11.19	492.4	408.61	0.0513	394.1	7.094	14.39	6.15	1.37
	474.36	16.44	65.96	0.00	0.0608	11.06	486.5	403.57	0.0543	434.8	7.826	15.87	7.59	1.37
	475.38	16.46	65.91	0.00	0.0610	11.07	486.9	404.26	0.0541	431.0	7.758	15.74	7.46	1.37
	476.36	16.46	65.93	0.00	0.0608	11.05	486.2	403.57	0.0545	435.1	7.832	15.89	7.60	1.37
	477.38	16.48	65.96	0.00	0.0607	11.05	486.2	403.42	0.0548	435.6	7.841	15.90	7.61	1.37
	478.52	16.46	65.96	0.00	0.0609	11.06	486.8	403.88	0.0543	431.7	7.771	15.76	7.48	1.37
	479.36	16.46	65.94	0.00	0.0609	11.07	487.2	404.37	0.0539	429.1	7.724	15.67	7.39	1.37
	480.44	16.49	65.96	0.00	0.0609	11.08	487.7	404.69	0.0541	426.4	7.675	15.57	7.30	1.37
	481.36	16.48	65.96	0.00	0.0609	11.06	486.6	403.74	0.0545	440.1	7.922	16.07	7.76	1.37
	482.38	16.48	65.96	0.00	0.0611	11.07	487.2	404.24	0.0547	444.8	8.007	16.24	7.92	1.37
	483.36	16.48	65.96	0.00	0.0612	11.47	504.7	418.75	0.0536	449.1	8.083	16.39	8.06	1.37
	484.38	16.46	65.99	0.00	0.0609	11.04	485.5	402.67	0.0551	434.3	7.817	15.85	7.57	1.37
	485.36	16.48	65.96	0.00	0.0608	11.12	489.3	405.99	0.0545	414.7	7.465	15.14	6.90	1.37
	486.38	16.49	65.96	0.00	0.0609	11.08	487.6	404.56	0.0536	423.8	7.628	15.47	7.21	1.37
	487.36	16.49	65.96	0.00	0.0607	10.98	483.1	400.84	0.0548	444.0	7.991	16.21	7.89	1.37
	488.38	16.49	65.96	0.00	0.0604	10.96	482.3	400.21	0.0565	452.7	8.149	16.53	8.18	1.37
	489.44	16.51	65.96	0.00	0.0610	11.08	487.6	404.56	0.0561	460.1	8.281	16.80	8.42	1.37
	490.38	16.51	65.93	0.00	0.0606	11.31	497.5	412.96	0.0557	432.3	7.782	15.79	7.51	1.37
	491.44	16.51	65.96	0.00	0.0603	10.94	481.4	399.44	0.0565	452.8	8.150	16.53	8.18	1.37
	492.36	16.51	65.96	0.00	0.0604	10.99	483.6	401.25	0.0557	443.2	7.977	16.18	7.87	1.37
	493.38	16.51	65.96	0.00	0.0606	10.98	483.3	401.02	0.0552	445.7	8.022	16.27	7.95	1.37
	494.36	16.51	65.94	0.00	0.0604	10.96	482.4	400.44	0.0561	451.2	8.121	16.48	8.13	1.37
	495.38	16.51	65.96	0.00	0.0630	11.38	500.7	415.45	0.0550	422.7	7.608	15.43	7.18	1.37
	496.36	16.51	65.96	0.00	0.0615	11.18	491.8	408.12	0.0530	418.4	7.532	15.28	7.03	1.36
	497.38	16.51	65.96	0.00	0.0611	11.33	498.6	413.71	0.0569	440.5	7.929	16.08	7.78	1.37
	498.36	16.49	65.96	0.00	0.0611	11.08	487.6	404.56	0.0575	467.1	8.408	17.05	8.64	1.36
	499.38	16.53	65.93	0.00	0.0634	11.06	486.6	403.95	0.0582	469.5	8.450	17.15	8.72	1.37
	500.36	16.53	65.96	0.00	0.0634	11.52	506.9	420.63	0.0591	466.2	8.392	17.02	8.62	1.37
	501.38	16.53	65.96	0.00	0.0610	11.03	485.4	402.78	0.0537	443.2	7.978	16.18	7.87	1.37
	502.36	16.53	65.96	0.00	0.0607	10.95	481.8	399.82	0.0565	462.1	8.318	16.87	8.48	1.37
	503.38	16.53	65.96	0.00	0.0607	11.04	485.8	403.13	0.0552	435.0	7.830	15.88	7.60	1.36
	504.44	16.53	65.98	0.00	0.0604	10.95	481.6	399.54	0.0570	464.0	8.352	16.94	8.55	1.36
	505.36	16.54	65.96	0.00	0.0608	10.97	482.6	400.49	0.0576	481.3	8.664	17.58	9.09	1.37
	506.38	16.53	65.96	0.00	0.0617	11.08	487.5	404.53	0.0546	456.6	8.219	16.67	8.31	1.37
	507.36	16.53	65.96	0.00	0.0612	11.05	486.2	403.44	0.0584	476.8	8.583	17.41	8.95	1.37
	508.38	16.54	65.96	0.00	0.0611	11.02	485.0	402.48	0.0522	440.8	7.934	16.09	7.79	1.36
	509.36	16.56	65.96	0.00	0.0615	11.06	486.8	404.04	0.0541	429.2	7.726	15.67	7.40	1.37
	510.38	16.54	65.94	0.00	0.0608	11.02	484.9	402.53	0.0547	440.1	7.922	16.08	7.77	1.37
	511.36	16.56	65.93	0.00	0.0610	11.01	484.5	402.27	0.0572	454.2	8.176	16.59	8.23	1.37
	512.38	16.56	65.96	0.00	0.0604	10.98	483.1	400.90	0.0563	453.2	8.158	16.55	8.20	1.37
	513.36	16.56	65.91	0.00	0.0607	11.15	490.5	407.43	0.0544	399.3	7.187	14.59	6.35	1.37
	514.38	16.57	65.96	0.00	0.0609	11.07	487.3	404.43	0.0540	422.6	7.608	15.43	7.18	1.37
	515.44	16.57	65.91	0.00	0.0607	11.01	484.4	402.35	0.0551	443.9	7.991	16.22	7.90	1.37
	516.38	16.57	65.96	0.00	0.0607	11.07	487.1	404.30	0.0549	426.7	7.681	15.58	7.32	1.36
	517.38	16.57	65.94	0.00	0.0608	11.06	486.6	403.98	0.0543	426.5	7.677	15.58	7.31	1.37
	518.36	16.59	65.96	0.00	0.0609	10.97	482.6	400.56	0.0543	456.1	8.210	16.66	8.30	1.37
	519.38	16.57	65.94	0.00	0.0612	11.12	489.2	406.19	0.0543	438.3	7.890	16.01	7.71	1.36
	520.36	16.57	65.93	0.00	0.0608	11.04	485.9	403.41	0.0544	436.9	7.864	15.96	7.66	1.37
	521.38	16.57	65.93	0.00	0.0613	11.09	488.0	405.21	0.0526	424.0	7.632	15.49	7.23	1.36
	522.36	16.57	65.91	0.00	0.0610	11.00	484.0	401.97	0.0547	455.0	8.190	16.63	8.26	1.36
	523.38	16.59	65.96	0.00	0.0609	11.12	489.3	406.13	0.0550	423.5	7.623	15.47	7.21	1.37
	524.36	16.59	65.93	0.00	0.0617	11.24	494.3	410.48	0.0529	430.8	7.754	15.74	7.46	1.37
	525.38	16.59	65.93	0.00	0.0609	11.14	490.2	407.03	0.0541	423.9	7.629	15.49	7.22	1.37
	526.36	16.59	65.96	0.00	0.0608	11.08	487.6	404.69	0.0546	432.3	7.782	15.79	7.51	1.37
	527.38	16.61	65.96	0.00	0.0610	11.09	487.8	404.90	0.0545	429.1	7.724	15.67	7.40	1.37
	528.44	16.61	65.96	0.00	0.0610	11.08	487.7	404.85	0.0548	433.7	7.806	15.84	7.56	1.36
	529.38	16.61	65.96	0.00	0.0618	11.31	497.7	413.16	0.0546	437.8	7.881	15.99	7.69	1.37
	530.38	16.61	65.96	0.00	0.0609	11.18	491.7	408.16	0.0554	427.0	7.686	15.60	7.33	1.37
	531.36	16.61	65.96	0.00	0.0613	11.25	494.9	410.80	0.0538	430.4	7.747	15.72	7.44	1.37
	532.38	16.62	65.96	0.00	0.0614	11.08	487.5	404.64	0.0547	439.0	7.902	16.03	7.74	1.37
	533.36	16.62	65.96	0.00	0.0607	11.02	485.1	402.67	0.0561	449.4	8.090	16.42	8.08	1.37
	534.38	16.62	65.96	0.00	0.0605	10.98	483.3	401.18	0.0575	462.8	8.330	16.90	8.51	1.37
	535.36	16.61	65.96	0.00	0.0610	11.11	489.0	405.89	0.0549	428.4	7.711	15.65	7.38	1.37
	536.38	16.62	65.98	0.00	0.0648	12.07	531.1	440.71	0.0547	438.1	7.887	16.00	7.71	1.37
	537.44	16.64	65.96	0.00	0.0608	11.03	485.5	403.04	0.0573	461.1	8.299	16.84	8.46	1.37
	538.38	16.64	65.96	0.00	0.0608	11.01	484.6	402.26	0.0566	460.9	8.297	16.84	8.45	1.37
	539.38	16.64	65.98	0.00	0.0608	11.03	485.1	402.61	0.0558	456.4	8.216	16.67	8.31	1.37
	540.38	16.64	65.96	0.00	0.0608	11.09	488.2	405.24	0.0559	442.0	7.956	16.14	7.84	1.37
	541.38	16.62	65.96	0.00	0.0606	10.96	482.1	400.21	0.0577	472.2	8.500	17.25	8.81	1.37
	542.38	16.64	65.94	0.00	0.0606	11.03	485.2	402.97	0.0572	458.4	8.251	16.75	8.37	1.36
	543.38	16.66	65.96	0.00	0.0610	11.08	487.4	404.67	0.0551	445.3	8.015	16.26	7.95	1.36
	544.36	16.66	65.93	0.00	0.0613	11.18	492.1	408.67	0.0545	445.8	8.024	16.29	7.96	1.37
	545.38	16.64	65.96	0.00	0.0614	11.11	489.0	405.92	0.0536	426.3	7.673	15.57	7.31	1.37
	546.36	16.66	65.96	0.00	0.0608	11.06	486.8	404.13	0.0562	451.1	8.120	16.48	8.14	1.37
	547.38	16.64	65.99	0.00	0.0608	11.06	486.6	403.78	0.0558	448.1	8.066	16.36	8.04	1.37
	548.36	16.66	65.96	0.00	0.0660	13.29	584.8	485.51	0.0545	424.2	7.636	15.50	7.24	1.36
	549.38	16.66	65.96	0.00	0.0608	11.07	487.0	404.27	0.0562	447.8	8.060	16.36	8.03	1.37
	550.44	16.66	65.96	0.00	0.0610	11.05	486.4	403.77	0.0559	454.5	8.182	16.60	8.25	1.37
	551.38	16.69	65.96	0.00	0.0609	11.03	485.3	402.92	0.0566	465.5	8.379	17.01	8.60	1.37
	552.38	16.67	65.96	0.00	0.0610	11.09	488.0	405.13	0.0555	443.8	7.989	16.21	7.90	1.37
	553.38	16.67	65.96	0.00	0.0607	11.02	485.0	402.63	0.0572	460.6	8.291	16.83	8.44	1.37
	554.38	16.67	65.96	0.00	0.0610	11.14	490.3	407.06	0.0550	445.3	8.015	16.27	7.95	1.36
	555.36	16.69	65.91	0.00	0.0606	11.04	485.6	403.50	0.0567	452.4	8.143	16.54	8.18	1.36
	556.38	16.69	65.96	0.00	0.0607	11.07	487.0	404.38	0.0563	443.6	7.985	16.21	7.89	1.36
	557.36	16.71	65.96	0.00	0.0615	11.34	498.8	414.15	0.0527	416.6	7.499	15.22	6.97	1.36
	558.38	16.69	65.96	0.00	0.0607	11.14	490.3	407.09	0.0558	422.1	7.597	15.42	7.16	1.37
	559.44	16.67	65.96	0.00	0.0609	11.16	491.2	407.78	0.0553	435.4	7.837	15.91	7.62	1.36
	560.38	16.69	65.96	0.00	0.0610	11.10	488.2	405.36	0.0541	433.3	7.799	15.83	7.55	1.36
	561.44	16.71	65.96	0.00	0.0614	11.11	488.9	405.96	0.0542	436.6	7.858	15.95	7.66	1.37
	562.38	16.67	65.96	0.00	0.0615	11.28	496.4	412.09	0.0543	431.0	7.758	15.74	7.47	1.36
	563.38	16.69	65.96	0.00	0.0607	11.05	486.3	403.75	0.0569	444.7	8.005	16.25	7.93	1.36
	564.38	16.71	65.93	0.00	0.0606	11.00	484.1	402.12	0.0570	458.3	8.249	16.75	8.37	1.37
	565.38	16.71	65.93	0.00	0.0605	10.98	483.3	401.49	0.0577	463.8	8.348	16.95	8.55	1.36
	566.38	16.71	65.96	0.00	0.0607	11.06	486.7	404.12	0.0555	439.2	7.905	16.05	7.75	1.36
	567.38	16.71	65.93	0.00	0.0619	11.23	494.0	410.35	0.0505	387.9	6.983	14.18	5.94	1.36
	568.36	16.72	65.96	0.00	0.0617	11.25	495.2	411.17	0.0514	406.0	7.307	14.83	6.60	1.36
	569.38	16.74	65.96	0.00	0.0610	11.11	488.9	405.99	0.0532	417.2	7.510	15.24	7.00	1.36
	570.36	16.71	65.96	0.00	0.0609	11.00	483.9	401.83	0.0540	443.2	7.978	16.19	7.88	1.37
	571.38	16.72	65.96	0.00	0.0609	11.10	488.3	405.52	0.0534	416.8	7.503	15.23	6.98	1.37
	572.44	16.71	65.94	0.00	0.0610	11.09	488.0	405.35	0.0534	425.1	7.652	15.54	7.27	1.36
	573.38	16.71	65.94	0.00	0.0626	11.42	502.7	417.53	0.0544	423.6	7.625	15.48	7.22	1.36
	576.58	16.74	65.93	0.00	0.0641	12.15	534.8	444.31	0.0539	418.6	7.535	15.30	7.05	1.36
	576.59	16.74	65.96	0.00	0.0615	11.26	495.5	411.46	0.0550	425.5	7.659	15.55	7.28	1.37
	576.59	16.74	65.96	0.00	0.0605	10.99	483.6	401.63	0.0559	441.5	7.947	16.13	7.82	1.37
	577.38	16.74	65.96	0.00	0.0606	10.94	481.5	399.86	0.0557	471.1	8.480	17.21	8.78	1.36
	578.38	16.74	65.96	0.00	0.0604	10.97	482.7	400.85	0.0573	463.1	8.335	16.92	8.53	1.36
	579.36	16.75	65.93	0.00	0.0642	11.94	525.3	436.40	0.0532	426.2	7.671	15.58	7.31	1.36
	580.38	16.75	65.98	0.00	0.0644	11.82	520.2	431.84	0.0547	431.2	7.762	15.75	7.48	1.36
	581.36	16.75	65.96	0.00	0.0608	11.07	487.2	404.62	0.0543	427.6	7.697	15.63	7.36	1.37
	582.38	16.75	65.94	0.00	0.0609	11.08	487.4	404.91	0.0536	419.3	7.547	15.33	7.07	1.36
	583.44	16.77	65.94	0.00	0.0606	11.01	484.4	402.48	0.0561	448.0	8.064	16.38	8.04	1.36
	584.38	16.75	65.96	0.00	0.0612	11.10	488.4	405.61	0.0543	436.1	7.850	15.94	7.65	1.36
	585.44	16.75	65.96	0.00	0.0608	11.06	486.7	404.20	0.0551	436.3	7.854	15.94	7.65	1.36
	586.38	16.74	65.98	0.00	0.0608	11.04	485.6	403.10	0.0558	446.2	8.032	16.30	7.98	1.36
	587.38	16.77	65.93	0.00	0.0605	11.01	484.4	402.43	0.0565	452.8	8.151	16.55	8.20	1.37
	588.38	16.77	65.99	0.00	0.0605	10.99	483.5	401.36	0.0572	456.4	8.215	16.67	8.31	1.36
	589.38	16.77	65.98	0.00	0.0604	10.97	482.6	400.68	0.0576	459.2	8.266	16.77	8.40	1.36
	590.38	16.77	65.96	0.00	0.0606	11.00	483.8	401.85	0.0564	456.4	8.215	16.68	8.31	1.36
	591.38	16.75	65.96	0.00	0.0607	11.06	486.7	404.23	0.0557	438.4	7.890	16.02	7.72	1.36
	592.36	16.80	65.96	0.00	0.0631	11.18	491.7	408.43	0.0554	453.0	8.155	16.56	8.21	1.36
	593.38	16.79	65.96	0.00	0.0606	11.05	486.3	403.90	0.0552	441.3	7.943	16.13	7.82	1.37
	594.36	16.77	65.93	0.00	0.0608	11.06	486.5	404.22	0.0548	438.1	7.886	16.02	7.71	1.36
	595.38	16.79	65.93	0.00	0.0607	11.04	486.0	403.80	0.0560	439.1	7.903	16.05	7.75	1.36
	596.44	16.80	65.94	0.00	0.0606	10.99	483.6	401.85	0.0562	455.8	8.204	16.66	8.30	1.36
	597.38	16.80	65.96	0.00	0.0605	11.01	484.5	402.48	0.0563	446.6	8.039	16.32	8.00	1.36
	598.38	16.80	65.96	0.00	0.0605	11.01	484.6	402.55	0.0573	455.8	8.205	16.66	8.30	1.36
	599.38	16.80	65.96	0.00	0.0610	11.11	488.7	405.96	0.0541	425.8	7.664	15.56	7.30	1.37
	600.38	16.79	65.96	0.00	0.0608	11.09	487.9	405.27	0.0552	434.0	7.813	15.86	7.58	1.36
	601.38	16.82	65.96	0.00	0.0608	11.03	485.3	403.10	0.0551	450.5	8.108	16.46	8.12	1.36
	602.38	16.80	65.96	0.00	0.0606	11.03	485.4	403.16	0.0555	443.2	7.977	16.20	7.88	1.37
	603.38	16.82	65.94	0.00	0.0606	11.01	484.3	402.39	0.0560	448.1	8.066	16.38	8.05	1.36
	604.38	16.80	65.96	0.00	0.0609	11.12	489.2	406.33	0.0545	423.5	7.624	15.48	7.22	1.37
	605.45	16.82	65.93	0.00	0.0608	11.05	486.1	403.91	0.0556	442.9	7.973	16.20	7.88	1.37
	606.38	16.82	65.96	0.00	0.0609	11.05	486.2	403.87	0.0546	441.1	7.941	16.12	7.82	1.36
	607.45	16.82	65.94	0.00	0.0606	11.03	485.2	403.14	0.0556	447.0	8.046	16.34	8.01	1.36
	608.38	16.80	65.96	0.00	0.0605	11.00	484.2	402.15	0.0567	449.7	8.095	16.44	8.10	1.36
	609.38	16.84	65.96	0.00	0.0606	11.00	484.1	402.13	0.0562	452.0	8.135	16.52	8.17	1.36
	610.38	16.82	65.96	0.00	0.0607	10.97	482.8	401.07	0.0557	457.2	8.230	16.71	8.34	1.37
	611.38	16.84	65.99	0.00	0.0603	10.94	481.5	399.82	0.0563	453.8	8.169	16.58	8.23	1.37
	612.38	16.85	65.96	0.00	0.0605	11.03	485.5	403.33	0.0551	427.7	7.699	15.63	7.37	1.37
	613.38	16.84	65.93	0.00	0.0602	10.90	479.4	398.43	0.0580	473.3	8.520	17.31	8.86	1.36
	614.38	16.85	65.99	0.00	0.0598	10.81	475.7	395.05	0.0600	493.7	8.886	18.04	9.48	1.36
	615.38	16.84	65.94	0.00	0.0599	10.82	476.0	395.56	0.0589	494.0	8.892	18.06	9.49	1.36
	616.38	16.85	65.94	0.00	0.0601	10.85	477.4	396.70	0.0575	484.1	8.714	17.70	9.19	1.37
	617.38	16.85	65.94	0.00	0.0602	10.83	476.6	396.07	0.0568	483.7	8.706	17.69	9.18	1.36
	618.36	16.85	65.96	0.00	0.0601	10.89	479.2	398.07	0.0571	460.8	8.295	16.85	8.46	1.36
	619.38	16.89	65.93	0.00	0.0605	11.00	484.0	402.28	0.0568	456.8	8.223	16.71	8.33	1.36
	620.45	16.87	65.96	0.00	0.0601	10.92	480.5	399.23	0.0587	473.2	8.518	17.30	8.85	1.36
	621.38	16.87	65.96	0.00	0.0604	10.99	483.4	401.63	0.0573	457.2	8.230	16.71	8.35	1.37
	622.38	16.85	65.93	0.00	0.0606	11.07	487.0	404.75	0.0570	436.6	7.859	15.97	7.67	1.37
	623.38	16.89	65.96	0.00	0.0604	10.95	481.7	400.26	0.0573	464.3	8.358	16.98	8.57	1.36
	624.38	16.87	65.96	0.00	0.0608	11.06	486.5	404.20	0.0546	433.3	7.800	15.84	7.56	1.36
	625.38	16.89	65.96	0.00	0.0606	11.03	485.4	403.27	0.0558	444.8	8.006	16.26	7.94	1.37
	626.38	16.89	65.96	0.00	0.0607	11.04	485.6	403.43	0.0557	448.0	8.065	16.38	8.05	1.36
	627.38	16.89	65.96	0.00	0.0605	10.97	482.8	401.16	0.0563	453.9	8.171	16.59	8.24	1.37
	628.38	16.89	65.93	0.00	0.0605	11.01	484.4	402.64	0.0562	450.1	8.101	16.46	8.11	1.37
	629.38	16.87	65.96	0.00	0.0606	11.01	484.5	402.53	0.0571	462.7	8.329	16.91	8.52	1.36
	630.38	16.87	65.96	0.00	0.0606	11.00	483.9	402.03	0.0561	452.9	8.153	16.56	8.21	1.37
	631.45	16.90	65.96	0.00	0.0605	10.99	483.5	401.74	0.0563	457.3	8.232	16.72	8.35	1.36
	632.38	16.89	65.96	0.00	0.0600	10.88	478.7	397.73	0.0591	480.3	8.645	17.56	9.07	1.37
	633.38	16.90	65.96	0.00	0.0603	10.87	478.3	397.45	0.0583	492.0	8.855	17.99	9.43	1.37
	634.38	16.92	65.94	0.00	0.0603	10.95	481.7	400.38	0.0575	457.9	8.242	16.75	8.37	1.37
	635.38	16.90	65.93	0.00	0.0609	11.07	487.1	404.87	0.0545	440.0	7.920	16.09	7.78	1.36
	636.38	16.92	65.96	0.00	0.0724	16.44	723.2	600.93	0.0586	471.2	8.481	17.23	8.79	1.37
	637.38	16.92	65.96	0.00	0.0632	11.38	500.9	416.25	0.0589	491.0	8.837	17.95	9.40	1.37
	638.38	16.90	65.96	0.00	0.0663	12.55	552.4	458.98	0.0581	473.0	8.515	17.29	8.85	1.37
	639.38	16.92	65.96	0.00	0.0605	11.09	487.9	405.38	0.0595	488.6	8.795	17.87	9.33	1.37
	640.38	16.92	65.98	0.00	0.0605	10.89	479.2	398.08	0.0596	491.6	8.850	17.97	9.42	1.37
	641.38	16.92	65.96	0.00	0.0605	10.93	480.7	399.44	0.0582	488.1	8.785	17.84	9.31	1.36
	642.36	16.93	65.96	0.00	0.0604	10.94	481.2	399.90	0.0587	483.6	8.705	17.68	9.18	1.37
	643.38	16.93	65.96	0.00	0.0605	10.95	482.0	400.56	0.0575	483.1	8.696	17.66	9.16	1.36
	644.38	16.92	65.93	0.00	0.0604	10.96	482.3	400.92	0.0579	467.0	8.407	17.08	8.66	1.37
	645.38	16.93	65.96	0.00	0.0603	10.93	480.7	399.50	0.0581	474.1	8.534	17.34	8.89	1.37
	646.38	16.97	65.93	0.00	0.0605	11.02	485.1	403.31	0.0567	454.6	8.183	16.63	8.27	1.37
	647.38	16.93	65.96	0.00	0.0610	11.06	486.8	404.52	0.0550	435.0	7.831	15.91	7.62	1.37
	648.38	16.93	65.96	0.00	0.0604	10.96	482.3	400.79	0.0561	452.9	8.152	16.56	8.21	1.37
	649.38	16.95	65.96	0.00	0.0603	10.90	479.7	398.65	0.0576	473.5	8.523	17.31	8.87	1.37
	650.38	16.95	65.96	0.00	0.0602	10.91	480.1	399.01	0.0576	467.7	8.418	17.10	8.68	1.37
	651.38	16.97	65.96	0.00	0.0603	10.94	481.2	399.95	0.0585	479.3	8.628	17.53	9.05	1.37
	652.38	16.95	65.96	0.00	0.0601	10.87	478.5	397.64	0.0595	490.9	8.836	17.95	9.40	1.37
	653.38	16.95	65.96	0.00	0.0613	11.04	485.6	403.57	0.0552	445.5	8.018	16.29	7.97	1.37
	654.38	16.95	65.96	0.00	0.0609	11.08	487.6	405.22	0.0547	430.7	7.753	15.75	7.47	1.37
	655.45	16.97	65.96	0.00	0.0606	11.01	484.3	402.48	0.0559	446.0	8.028	16.31	7.99	1.37
	656.38	16.97	65.96	0.00	0.0604	10.98	483.3	401.64	0.0572	459.4	8.270	16.80	8.42	1.37
	657.38	16.97	65.96	0.00	0.0603	10.94	481.4	400.11	0.0568	458.8	8.259	16.78	8.40	1.37
	658.38	16.97	65.94	0.00	0.0602	10.91	480.1	399.17	0.0586	470.3	8.465	17.20	8.77	1.37
	659.38	16.95	65.94	0.00	0.0604	10.95	481.6	400.39	0.0544	439.4	7.908	16.07	7.76	1.37
	660.38	16.98	65.93	0.00	0.0604	11.01	484.6	402.90	0.0549	422.0	7.596	15.44	7.18	1.37
	661.38	17.00	65.96	0.00	0.0613	11.05	486.2	404.13	0.0494	413.1	7.435	15.11	6.86	1.37
	662.38	16.98	65.96	0.00	0.0610	11.08	487.6	405.28	0.0523	405.9	7.307	14.85	6.61	1.37
	663.38	16.98	65.96	0.00	0.0612	11.14	490.0	407.29	0.0497	388.2	6.987	14.20	5.96	1.37
	664.38	16.98	65.96	0.00	0.0611	11.09	487.8	405.42	0.0516	408.2	7.348	14.93	6.69	1.37
	665.38	17.00	65.96	0.00	0.0612	11.14	490.2	407.48	0.0501	393.1	7.077	14.38	6.15	1.37
	666.38	17.00	65.98	0.00	0.0612	11.14	490.2	407.31	0.0501	387.8	6.980	14.18	5.95	1.37
	667.38	17.00	65.93	0.00	0.0606	11.02	484.8	403.13	0.0545	429.0	7.722	15.70	7.42	1.37
	668.39	17.02	65.96	0.00	0.0605	11.00	483.8	402.15	0.0561	453.7	8.167	16.60	8.24	1.37
	669.38	17.00	65.96	0.00	0.0612	10.98	482.9	401.41	0.0567	449.1	8.083	16.42	8.09	1.37
	670.38	17.02	65.94	0.00	0.0644	12.20	537.0	446.52	0.0562	455.9	8.206	16.68	8.31	1.37
	671.38	17.02	65.96	0.00	0.0618	10.96	482.3	400.88	0.0578	471.7	8.491	17.25	8.81	1.37
	672.38	17.02	65.96	0.00	0.0606	11.06	486.8	404.66	0.0572	459.5	8.271	16.81	8.43	1.37
	673.38	17.00	65.96	0.00	0.0603	10.95	481.7	400.42	0.0585	471.2	8.481	17.23	8.80	1.37
	674.38	17.02	65.96	0.00	0.0604	10.94	481.2	400.00	0.0575	467.8	8.421	17.11	8.69	1.37
	675.38	17.05	65.96	0.00	0.0603	10.95	481.7	400.44	0.0580	473.3	8.519	17.31	8.87	1.37
	676.38	17.03	65.96	0.00	0.0605	10.97	482.6	401.18	0.0584	478.9	8.620	17.52	9.04	1.37
	677.38	17.02	65.96	0.00	0.0600	10.90	479.5	398.55	0.0608	495.5	8.919	18.12	9.54	1.37
	678.38	17.03	65.96	0.00	0.0603	10.82	475.9	395.61	0.0569	496.4	8.935	18.16	9.57	1.37
	679.45	17.03	65.96	0.00	0.0607	10.79	474.7	394.65	0.0544	502.0	9.037	18.36	9.74	1.37
	680.38	17.02	65.96	0.00	0.0603	10.89	479.1	398.26	0.0570	467.8	8.421	17.11	8.69	1.37
	681.38	17.05	65.98	0.00	0.0610	11.11	488.8	406.21	0.0523	408.3	7.350	14.93	6.70	1.37
	682.38	17.03	65.98	0.00	0.0607	11.07	487.2	404.86	0.0539	416.8	7.503	15.24	7.00	1.37
	683.38	17.05	65.96	0.00	0.0607	11.09	488.2	405.81	0.0544	410.6	7.391	15.02	6.78	1.37
	684.38	17.07	65.94	0.00	0.0605	10.85	477.6	397.21	0.0557	481.8	8.673	17.63	9.13	1.37
	685.38	17.05	65.96	0.00	0.0608	11.00	483.9	402.24	0.0536	436.6	7.858	15.97	7.68	1.37
	686.38	17.07	65.96	0.00	0.0605	10.97	482.5	401.13	0.0562	451.6	8.128	16.52	8.17	1.37
	687.38	17.07	65.96	0.00	0.0608	11.10	488.5	406.16	0.0540	408.2	7.347	14.93	6.69	1.37
	688.38	17.07	65.96	0.00	0.0610	11.11	488.6	406.25	0.0527	408.9	7.360	14.96	6.72	1.37
	689.38	17.07	65.98	0.00	0.0603	10.98	483.3	401.69	0.0563	439.7	7.914	16.08	7.78	1.37
	690.45	17.07	65.96	0.00	0.0604	10.92	480.6	399.56	0.0559	462.9	8.332	16.93	8.54	1.37
	691.38	17.07	65.96	0.00	0.0610	11.11	488.9	406.49	0.0525	404.8	7.287	14.81	6.57	1.37
	692.39	17.07	65.98	0.00	0.0612	11.16	491.1	408.12	0.0511	393.1	7.076	14.38	6.15	1.37
	693.38	17.08	65.96	0.00	0.0610	11.12	489.5	406.94	0.0526	400.9	7.215	14.66	6.43	1.37
	694.38	17.08	65.96	0.00	0.0608	11.11	488.7	406.33	0.0538	406.7	7.321	14.88	6.64	1.37
	695.38	17.08	65.93	0.00	0.0611	11.12	489.2	406.85	0.0515	400.3	7.205	14.65	6.41	1.37
	696.38	17.10	65.96	0.00	0.0611	11.15	490.8	408.07	0.0515	392.0	7.056	14.34	6.11	1.37
