Mar 14 2018 at 9:17:41
Frequency: 1.00Hz.
CO2
Zero:  Value:0.91  Date:May 19 2009 at 7:53:33 AM
Span:  Value:1.00  Date:May 19 2009 at 8:00:06 AM
H2O
Zero:  Value:0.77  Date:May 19 2009 at 7:54:01 AM
Span:  Value:1.01  Date:28 Jun 2004	 at 08:29:05	
Strong cloud cover low light
	Relative Time	Temperature	Pressure	Aux Input	CO2 Absorptance	CO2 mmol/m3	CO2 mg/m3	CO2 umol/mol	H2O Absorptance	H2O mmol/m3	H2O g/m3	H2O mmol/mol	H2O(°C)	Cooler Voltage
	0.53	20.85	66.09	0.00	0.0615	11.20	492.8	414.27	0.0553	442.1	7.958	16.35	8.05	1.36
	1.52	20.84	66.09	0.00	0.0614	11.20	492.6	414.06	0.0555	444.2	7.995	16.43	8.12	1.36
	2.53	20.82	66.07	0.00	0.0614	11.18	491.9	413.53	0.0555	443.8	7.988	16.42	8.11	1.36
	3.52	20.85	66.07	0.00	0.0614	11.19	492.3	413.98	0.0555	445.1	8.011	16.47	8.15	1.36
	4.53	20.85	66.09	0.00	0.0614	11.18	492.1	413.64	0.0556	446.0	8.028	16.49	8.18	1.36
	5.52	20.87	66.14	0.00	0.0615	11.18	492.0	413.26	0.0556	447.1	8.047	16.52	8.22	1.36
	6.53	20.89	66.07	0.00	0.0613	11.18	491.8	413.58	0.0559	448.6	8.075	16.60	8.27	1.36
	7.52	20.89	66.09	0.00	0.0614	11.18	491.7	413.37	0.0559	448.8	8.079	16.60	8.28	1.36
	8.53	20.89	66.09	0.00	0.0613	11.17	491.5	413.15	0.0559	449.8	8.096	16.64	8.31	1.36
	9.52	20.89	66.12	0.00	0.0613	11.17	491.4	412.97	0.0560	451.4	8.126	16.69	8.36	1.36
	10.53	20.87	66.09	0.00	0.0613	11.16	490.9	412.67	0.0560	451.7	8.130	16.71	8.37	1.36
	11.52	20.91	66.09	0.00	0.0614	11.17	491.4	413.10	0.0561	450.9	8.116	16.68	8.34	1.36
	12.52	20.87	66.09	0.00	0.0613	11.16	491.0	412.75	0.0562	452.8	8.150	16.75	8.40	1.36
	13.59	20.87	66.09	0.00	0.0613	11.16	491.1	412.87	0.0562	452.4	8.142	16.73	8.39	1.36
	14.52	20.87	66.09	0.00	0.0613	11.15	490.8	412.59	0.0563	454.2	8.175	16.80	8.45	1.36
	15.59	20.87	66.09	0.00	0.0613	11.15	490.6	412.41	0.0565	455.2	8.194	16.84	8.48	1.36
	16.52	20.87	66.09	0.00	0.0613	11.15	490.7	412.50	0.0565	455.0	8.190	16.83	8.48	1.36
	17.53	20.87	66.09	0.00	0.0613	11.15	490.5	412.32	0.0566	456.5	8.217	16.88	8.52	1.36
	18.52	20.87	66.07	0.00	0.0613	11.15	490.7	412.60	0.0567	457.6	8.238	16.93	8.56	1.36
	19.53	20.89	66.09	0.00	0.0613	11.15	490.5	412.35	0.0568	458.5	8.253	16.96	8.59	1.36
	20.53	20.87	66.09	0.00	0.0612	11.14	490.2	412.04	0.0568	459.8	8.277	17.01	8.63	1.36
	21.55	20.89	66.09	0.00	0.0612	11.15	490.4	412.25	0.0569	459.8	8.276	17.01	8.63	1.36
	22.53	20.89	66.12	0.00	0.0612	11.14	490.2	411.96	0.0570	460.7	8.293	17.04	8.66	1.36
	23.55	20.89	66.09	0.00	0.0612	11.14	490.2	412.07	0.0572	463.8	8.348	17.15	8.76	1.36
	24.53	20.89	66.09	0.00	0.0612	11.14	490.1	412.00	0.0570	462.5	8.325	17.11	8.72	1.36
	25.55	20.87	66.06	0.00	0.0612	11.13	489.8	411.90	0.0573	464.9	8.368	17.20	8.79	1.36
	26.53	20.87	66.09	0.00	0.0612	11.13	489.7	411.61	0.0575	465.6	8.381	17.22	8.82	1.36
	27.55	20.85	66.09	0.00	0.0611	11.13	489.8	411.71	0.0574	465.4	8.377	17.21	8.81	1.36
	28.55	20.85	66.06	500.00	0.0612	11.13	489.8	411.87	0.0574	466.1	8.391	17.25	8.83	1.36
	29.55	20.85	66.06	0.00	0.0611	11.12	489.2	411.40	0.0575	466.2	8.392	17.25	8.84	1.36
	30.53	20.85	66.09	0.00	0.0611	11.11	488.7	410.79	0.0577	469.1	8.444	17.35	8.93	1.36
	31.55	20.84	66.09	0.00	0.0611	11.12	489.4	411.37	0.0576	469.1	8.443	17.35	8.92	1.36
	32.53	20.85	66.09	0.00	0.0612	11.12	489.3	411.29	0.0578	469.6	8.453	17.37	8.94	1.36
	33.55	20.85	66.09	0.00	0.0611	11.11	488.7	410.81	0.0579	470.4	8.467	17.40	8.97	1.36
	34.53	20.85	66.12	0.00	0.0611	11.11	488.7	410.64	0.0578	472.1	8.497	17.45	9.02	1.36
	35.55	20.85	66.09	0.00	0.0611	11.11	488.7	410.74	0.0580	471.3	8.483	17.43	9.00	1.36
	36.55	20.82	66.09	0.00	0.0611	11.11	489.0	410.99	0.0579	472.4	8.503	17.47	9.03	1.36
	37.53	20.82	66.12	0.00	0.0612	11.10	488.6	410.50	0.0582	475.7	8.563	17.59	9.13	1.36
	38.61	20.86	66.12	0.00	0.0612	11.10	488.5	410.48	0.0583	478.4	8.612	17.69	9.22	1.36
	39.53	20.84	66.09	0.00	0.0610	11.10	488.6	410.67	0.0582	475.1	8.553	17.57	9.12	1.36
	40.61	20.85	66.09	0.00	0.0611	11.10	488.4	410.57	0.0584	475.3	8.555	17.58	9.12	1.36
	41.53	20.85	66.06	0.00	0.0611	11.10	488.5	410.79	0.0584	477.3	8.591	17.66	9.18	1.36
	42.55	20.84	66.09	0.00	0.0611	11.10	488.3	410.40	0.0585	478.2	8.608	17.69	9.21	1.36
	43.53	20.85	66.09	0.00	0.0611	11.10	488.3	410.45	0.0585	478.6	8.614	17.70	9.22	1.36
	44.55	20.85	66.09	0.00	0.0611	11.10	488.5	410.63	0.0586	478.4	8.610	17.69	9.22	1.36
	45.53	20.85	66.09	0.00	0.0611	11.10	488.5	410.61	0.0585	479.1	8.624	17.72	9.24	1.36
	46.55	20.85	66.09	0.00	0.0610	11.09	488.0	410.23	0.0585	479.7	8.635	17.74	9.26	1.36
	47.53	20.87	66.07	0.00	0.0611	11.10	488.3	410.58	0.0587	479.6	8.632	17.74	9.25	1.36
	48.55	20.85	66.09	0.00	0.0611	11.09	488.1	410.32	0.0587	482.1	8.677	17.83	9.33	1.36
	49.53	20.85	66.09	0.00	0.0610	11.09	488.1	410.26	0.0588	482.1	8.677	17.83	9.33	1.36
	50.55	20.87	66.09	0.00	0.0610	11.09	487.8	410.08	0.0589	482.6	8.687	17.85	9.35	1.36
	51.53	20.85	66.09	0.00	0.0610	11.08	487.5	409.81	0.0589	483.7	8.707	17.89	9.38	1.36
	52.55	20.84	66.09	0.00	0.0610	11.08	487.6	409.81	0.0590	484.5	8.720	17.92	9.40	1.36
	53.53	20.84	66.09	0.00	0.0610	11.08	487.7	409.93	0.0589	484.3	8.717	17.91	9.40	1.36
	54.55	20.87	66.09	0.00	0.0610	11.08	487.6	409.85	0.0592	485.1	8.732	17.94	9.43	1.36
	55.53	20.85	66.11	0.00	0.0610	11.08	487.6	409.68	0.0592	486.1	8.749	17.97	9.45	1.36
	56.55	20.85	66.09	0.00	0.0610	11.07	487.2	409.54	0.0593	486.8	8.762	18.00	9.48	1.36
	57.53	20.85	66.09	0.00	0.0609	11.09	487.8	410.07	0.0592	485.3	8.735	17.95	9.43	1.36
	58.55	20.85	66.09	0.00	0.0609	11.09	487.8	410.04	0.0591	486.6	8.758	18.00	9.47	1.36
	59.53	20.85	66.07	0.00	0.0610	11.08	487.5	409.88	0.0591	486.2	8.751	17.99	9.46	1.36
	60.55	20.85	66.09	0.00	0.0609	11.08	487.5	409.75	0.0593	487.0	8.765	18.01	9.48	1.36
	61.53	20.85	66.09	0.00	0.0611	11.08	487.4	409.70	0.0594	488.8	8.798	18.08	9.54	1.36
	62.55	20.84	66.09	0.00	0.0610	11.08	487.6	409.83	0.0593	488.1	8.786	18.05	9.51	1.36
	63.61	20.82	66.12	0.00	0.0610	11.08	487.6	409.63	0.0595	488.8	8.799	18.07	9.54	1.36
	64.53	20.84	66.09	0.00	0.0609	11.08	487.5	409.73	0.0594	489.0	8.803	18.09	9.54	1.36
	65.55	20.82	66.09	0.00	0.0609	11.07	486.9	409.24	0.0596	490.9	8.836	18.15	9.60	1.36
	66.53	20.82	66.09	0.00	0.0609	11.06	486.8	409.11	0.0599	494.1	8.894	18.27	9.70	1.36
	67.55	20.84	66.12	0.00	0.0609	11.08	487.3	409.45	0.0597	492.1	8.858	18.19	9.64	1.36
	68.53	20.84	66.09	0.00	0.0609	11.06	486.7	409.06	0.0597	497.8	8.960	18.41	9.81	1.36
	69.55	20.82	66.09	0.00	0.0609	11.07	487.1	409.40	0.0596	491.3	8.843	18.17	9.61	1.36
	70.53	20.82	66.06	0.00	0.0609	11.07	487.1	409.53	0.0597	492.5	8.864	18.22	9.65	1.36
	71.55	20.84	66.09	0.00	0.0609	11.06	486.6	409.03	0.0599	495.7	8.922	18.33	9.74	1.36
	72.53	20.85	66.09	0.00	0.0608	11.06	486.6	408.99	0.0599	494.3	8.898	18.28	9.70	1.36
	73.55	20.85	66.12	0.00	0.0609	11.04	486.0	408.33	0.0600	495.8	8.925	18.33	9.75	1.36
	74.53	20.85	66.09	0.00	0.0608	11.05	486.1	408.60	0.0600	495.3	8.915	18.32	9.73	1.36
	75.55	20.85	66.09	0.00	0.0609	11.05	486.4	408.82	0.0601	496.6	8.939	18.37	9.77	1.36
	76.53	20.85	66.06	0.00	0.0609	11.06	486.7	409.24	0.0600	495.3	8.916	18.33	9.74	1.36
	77.55	20.82	66.09	0.00	0.0608	11.05	486.1	408.57	0.0602	497.9	8.962	18.41	9.81	1.36
	78.53	20.82	66.09	0.00	0.0608	11.03	485.5	408.08	0.0606	501.8	9.032	18.56	9.93	1.36
	79.55	20.80	66.06	0.00	0.0608	11.06	486.6	409.10	0.0602	497.5	8.954	18.40	9.80	1.36
	80.53	20.82	66.07	0.00	0.0609	11.06	486.5	409.03	0.0603	498.2	8.968	18.43	9.82	1.36
	81.55	20.80	66.09	0.00	0.0608	11.04	485.7	408.18	0.0604	500.3	9.005	18.50	9.88	1.36
	82.53	20.82	66.09	0.00	0.0608	11.03	485.4	407.92	0.0606	503.1	9.056	18.60	9.96	1.36
	83.55	20.82	66.09	0.00	0.0608	11.04	485.7	408.24	0.0604	501.9	9.034	18.56	9.93	1.36
	84.61	20.79	66.09	0.00	0.0608	11.04	485.6	408.05	0.0605	501.8	9.033	18.56	9.93	1.36
	85.55	20.80	66.12	0.00	0.0607	11.04	485.7	408.04	0.0605	500.8	9.015	18.51	9.90	1.36
	86.53	20.80	66.09	0.00	0.0608	11.05	486.0	408.48	0.0605	500.6	9.011	18.51	9.89	1.36
	87.55	20.84	66.09	0.00	0.0607	11.03	485.3	407.89	0.0606	502.9	9.052	18.60	9.96	1.36
	88.61	20.82	66.09	0.00	0.0607	11.03	485.4	407.94	0.0607	503.0	9.055	18.60	9.96	1.36
	89.55	20.80	66.09	0.00	0.0608	11.04	485.6	408.15	0.0606	502.2	9.040	18.57	9.94	1.36
	90.55	20.82	66.06	0.00	0.0607	11.02	485.1	407.87	0.0606	504.1	9.074	18.65	10.00	1.36
	91.53	20.82	66.09	0.00	0.0608	11.03	485.4	408.00	0.0607	503.5	9.064	18.62	9.98	1.36
	92.55	20.82	66.07	0.00	0.0608	11.04	485.8	408.40	0.0606	502.3	9.042	18.58	9.94	1.36
	93.53	20.82	66.09	0.00	0.0608	11.04	485.8	408.31	0.0607	502.5	9.046	18.58	9.95	1.36
	94.55	20.82	66.09	0.00	0.0607	11.01	484.3	407.00	0.0608	504.6	9.083	18.66	10.01	1.36
	95.53	20.82	66.09	0.00	0.0606	11.02	484.7	407.36	0.0608	505.2	9.094	18.68	10.03	1.36
	96.55	20.86	66.12	0.00	0.0607	11.01	484.6	407.19	0.0610	506.1	9.110	18.71	10.06	1.36
	97.53	20.82	66.09	0.00	0.0607	11.02	485.1	407.70	0.0608	505.7	9.102	18.70	10.04	1.36
	98.55	20.82	66.09	0.00	0.0609	11.03	485.1	407.72	0.0609	505.2	9.093	18.68	10.03	1.36
	99.53	20.80	66.11	0.00	0.0606	11.00	483.9	406.51	0.0608	506.1	9.109	18.71	10.05	1.36
	100.55	20.82	66.07	0.00	0.0608	11.02	484.9	407.70	0.0609	505.9	9.107	18.72	10.05	1.36
	101.53	20.82	66.09	0.00	0.0607	11.02	485.1	407.69	0.0609	505.6	9.100	18.70	10.04	1.36
	102.55	20.80	66.09	0.00	0.0607	11.01	484.5	407.20	0.0610	507.4	9.133	18.76	10.09	1.36
	103.53	20.80	66.09	0.00	0.0606	11.00	484.0	406.73	0.0610	508.2	9.148	18.79	10.11	1.36
	104.55	20.80	66.09	0.00	0.0606	10.99	483.7	406.48	0.0611	509.3	9.167	18.83	10.15	1.36
	105.53	20.80	66.09	0.00	0.0607	10.99	483.7	406.48	0.0613	509.3	9.167	18.83	10.15	1.37
	106.55	20.80	66.09	0.00	0.0607	11.01	484.5	407.18	0.0610	508.7	9.157	18.81	10.13	1.36
	107.53	20.79	66.09	0.00	0.0608	11.00	483.9	406.69	0.0612	509.9	9.178	18.85	10.16	1.36
	108.55	20.79	66.09	0.00	0.0607	11.00	484.1	406.85	0.0612	510.1	9.182	18.86	10.17	1.36
	109.53	20.80	66.09	0.00	0.0608	11.00	483.9	406.71	0.0612	510.2	9.184	18.87	10.17	1.36
	110.55	20.80	66.09	0.00	0.0607	11.01	484.3	407.00	0.0612	509.8	9.177	18.85	10.16	1.36
	111.53	20.80	66.12	0.00	0.0607	11.00	484.2	406.76	0.0612	510.6	9.192	18.88	10.19	1.37
	112.55	20.79	66.09	0.00	0.0607	11.00	484.1	406.82	0.0614	511.3	9.203	18.91	10.20	1.36
	113.55	20.80	66.09	0.00	0.0607	11.00	483.9	406.67	0.0615	511.5	9.206	18.91	10.21	1.36
	114.55	20.80	66.09	0.00	0.0606	11.00	484.1	406.84	0.0614	511.1	9.200	18.90	10.20	1.36
	115.55	20.82	66.09	0.00	0.0606	10.99	483.5	406.36	0.0615	512.5	9.226	18.95	10.24	1.36
	116.53	20.82	66.09	0.00	0.0606	11.00	484.0	406.81	0.0615	512.0	9.217	18.94	10.23	1.37
	117.55	20.82	66.09	0.00	0.0606	10.99	483.4	406.32	0.0614	513.6	9.245	18.99	10.27	1.37
	118.53	20.82	66.06	0.00	0.0606	10.98	483.2	406.24	0.0616	514.4	9.259	19.03	10.30	1.36
	119.55	20.82	66.09	250.00	0.0606	10.99	483.6	406.46	0.0615	513.4	9.241	18.98	10.27	1.36
	120.53	20.82	66.04	0.00	0.0606	10.98	483.0	406.21	0.0617	515.0	9.270	19.06	10.31	1.36
	121.55	20.80	66.09	0.00	0.0605	10.97	482.6	405.57	0.0617	515.7	9.282	19.07	10.33	1.36
	122.53	20.82	66.09	0.00	0.0607	10.99	483.7	406.52	0.0617	514.4	9.259	19.02	10.30	1.36
	123.55	20.82	66.09	0.00	0.0605	10.97	482.9	405.85	0.0616	515.6	9.281	19.07	10.33	1.36
	124.53	20.82	66.09	0.00	0.0607	10.99	483.7	406.53	0.0618	514.8	9.267	19.04	10.31	1.36
	125.55	20.82	66.09	0.00	0.0605	10.99	483.4	406.26	0.0617	515.8	9.284	19.07	10.34	1.36
	126.53	20.82	66.09	0.00	0.0606	10.99	483.5	406.34	0.0618	515.6	9.280	19.07	10.33	1.36
	127.55	20.82	66.07	0.00	0.0605	10.99	483.5	406.50	0.0617	515.9	9.287	19.09	10.34	1.36
	128.53	20.82	66.09	0.00	0.0606	10.98	483.2	406.11	0.0618	516.9	9.303	19.11	10.37	1.37
	129.55	20.82	66.09	0.00	0.0605	10.98	483.2	406.14	0.0616	516.2	9.292	19.09	10.35	1.37
	130.53	20.82	66.09	0.00	0.0606	10.98	483.2	406.12	0.0618	517.6	9.317	19.14	10.39	1.36
	131.55	20.80	66.09	0.00	0.0605	10.99	483.7	406.48	0.0618	517.4	9.313	19.13	10.38	1.37
	132.53	20.79	66.09	0.00	0.0606	10.98	483.2	406.06	0.0583	514.7	9.264	19.03	10.30	1.37
