Mar 14 2018 at 9:58:26
Frequency: 1.00Hz.
CO2
Zero:  Value:0.91  Date:May 19 2009 at 7:53:33 AM
Span:  Value:1.00  Date:May 19 2009 at 8:00:06 AM
H2O
Zero:  Value:0.77  Date:May 19 2009 at 7:54:01 AM
Span:  Value:1.01  Date:28 Jun 2004	 at 08:29:05	
Very cloudy and cold, periodic droplets
	Relative Time	Temperature	Pressure	Aux Input	CO2 Absorptance	CO2 mmol/m3	CO2 mg/m3	CO2 umol/mol	H2O Absorptance	H2O mmol/m3	H2O g/m3	H2O mmol/mol	H2O(°C)	Cooler Voltage
	0.23	19.88	66.09	0.00	0.0611	11.11	489.0	409.67	0.0555	446.3	8.033	16.45	8.14	1.36
	1.22	19.90	66.12	0.00	0.0611	11.12	489.2	409.70	0.0557	447.8	8.061	16.50	8.19	1.35
	2.23	19.90	66.09	0.00	0.0612	11.13	489.9	410.45	0.0559	448.6	8.074	16.54	8.22	1.36
	3.22	19.90	66.12	0.00	0.0612	11.12	489.4	409.85	0.0558	448.5	8.072	16.53	8.21	1.35
	4.23	19.88	66.12	0.00	0.0612	11.12	489.1	409.63	0.0559	447.8	8.060	16.50	8.19	1.35
	5.22	19.90	66.12	0.00	0.0614	11.17	491.7	411.76	0.0559	449.9	8.098	16.58	8.26	1.36
	6.22	19.88	66.12	0.00	0.0612	11.14	490.0	410.36	0.0558	449.8	8.097	16.58	8.26	1.36
	7.22	19.90	66.09	0.00	0.0613	11.14	490.1	410.62	0.0560	450.3	8.105	16.60	8.27	1.36
	8.22	19.90	66.09	0.00	0.0612	11.14	490.1	410.60	0.0560	450.3	8.105	16.60	8.27	1.35
	9.22	19.88	66.12	0.00	0.0612	11.15	490.7	410.92	0.0560	450.8	8.115	16.61	8.29	1.36
	10.22	19.88	66.12	0.00	0.0614	11.18	492.0	412.02	0.0561	452.0	8.135	16.65	8.33	1.36
	11.22	19.90	66.12	0.00	0.0613	11.16	490.9	411.08	0.0560	451.2	8.122	16.63	8.30	1.36
	12.22	19.90	66.12	0.00	0.0613	11.16	490.8	411.07	0.0561	451.7	8.130	16.64	8.32	1.36
	13.30	19.90	66.09	0.00	0.0614	11.18	492.1	412.26	0.0564	454.0	8.172	16.74	8.39	1.35
	14.22	19.90	66.12	0.00	0.0615	11.17	491.5	411.60	0.0564	453.5	8.164	16.71	8.38	1.36
	15.30	19.88	66.09	0.00	0.0615	11.18	491.9	412.07	0.0564	454.2	8.176	16.74	8.40	1.36
	16.22	19.91	66.09	0.00	0.0615	11.18	492.1	412.33	0.0564	454.3	8.177	16.75	8.40	1.36
	17.23	19.91	66.09	0.00	0.0614	11.20	492.8	412.89	0.0563	455.1	8.193	16.78	8.43	1.36
	18.22	19.88	66.09	0.00	0.0613	11.17	491.7	411.92	0.0563	454.3	8.177	16.75	8.40	1.36
	19.23	19.88	66.12	0.00	0.0614	11.18	491.8	411.87	0.0564	455.0	8.190	16.76	8.43	1.35
	20.22	19.91	66.09	0.00	0.0614	11.19	492.4	412.57	0.0565	456.1	8.209	16.81	8.46	1.35
	21.23	19.91	66.09	0.00	0.0615	11.20	492.9	413.00	0.0566	457.3	8.231	16.86	8.50	1.35
	22.22	19.90	66.12	0.00	0.0615	11.21	493.3	413.12	0.0566	457.6	8.238	16.86	8.51	1.36
	23.23	19.91	66.09	0.00	0.0614	11.21	493.1	413.19	0.0566	457.9	8.242	16.88	8.52	1.36
	24.22	19.91	66.12	0.00	0.0615	11.20	492.7	412.64	0.0566	456.8	8.223	16.84	8.49	1.36
	25.23	19.91	66.12	0.00	0.0614	11.20	492.9	412.80	0.0566	458.0	8.243	16.88	8.52	1.35
	26.22	19.90	66.09	0.00	0.0615	11.21	493.3	413.27	0.0569	459.7	8.275	16.95	8.58	1.35
	27.23	19.91	66.09	0.00	0.0615	11.22	493.5	413.52	0.0568	459.2	8.266	16.93	8.56	1.35
	28.22	19.91	66.12	0.00	0.0614	11.22	493.5	413.30	0.0568	459.7	8.275	16.94	8.58	1.35
	29.23	19.90	66.09	0.00	0.0616	11.21	493.3	413.30	0.0569	459.7	8.275	16.95	8.58	1.36
	30.22	19.91	66.12	0.00	0.0617	11.22	493.6	413.44	0.0570	460.9	8.296	16.98	8.62	1.36
	31.23	19.91	66.09	0.00	0.0616	11.22	493.9	413.79	0.0571	461.5	8.307	17.01	8.64	1.35
	32.22	19.91	66.12	0.00	0.0616	11.22	493.6	413.44	0.0570	461.6	8.309	17.01	8.64	1.35
	33.22	19.91	66.12	0.00	0.0616	11.22	493.5	413.34	0.0571	461.6	8.308	17.01	8.64	1.35
	34.22	19.91	66.12	0.00	0.0616	11.22	493.9	413.64	0.0572	462.2	8.319	17.03	8.66	1.36
	35.22	19.91	66.12	0.00	0.0616	11.23	494.0	413.72	0.0571	462.7	8.329	17.05	8.68	1.36
	36.22	19.91	66.12	0.00	0.0616	11.23	494.2	413.92	0.0572	463.1	8.335	17.07	8.69	1.36
	37.22	19.89	66.09	0.00	0.0616	11.23	494.1	413.97	0.0571	462.6	8.328	17.06	8.67	1.35
	38.30	19.93	66.09	0.00	0.0616	11.23	494.2	414.11	0.0572	463.3	8.339	17.08	8.69	1.36
	39.22	19.93	66.12	0.00	0.0617	11.24	494.7	414.33	0.0573	464.3	8.357	17.11	8.73	1.35
	40.30	19.93	66.09	0.00	0.0618	11.25	494.8	414.63	0.0574	465.1	8.372	17.15	8.75	1.36
	41.22	19.91	66.09	0.00	0.0617	11.25	494.9	414.68	0.0573	465.8	8.385	17.17	8.78	1.36
	42.23	19.93	66.09	0.00	0.0617	11.26	495.3	415.02	0.0573	465.5	8.380	17.16	8.77	1.36
	43.22	19.91	66.12	0.00	0.0618	11.26	495.3	414.82	0.0575	465.4	8.377	17.15	8.76	1.35
	44.23	19.91	66.12	0.00	0.0618	11.26	495.4	414.92	0.0575	466.4	8.395	17.19	8.79	1.36
	45.22	19.93	66.07	0.00	0.0618	11.26	495.5	415.34	0.0576	466.3	8.393	17.20	8.79	1.35
	46.23	19.95	66.09	0.00	0.0617	11.26	495.6	415.27	0.0572	466.0	8.388	17.18	8.78	1.36
	47.22	19.93	66.12	0.00	0.0617	11.26	495.5	415.01	0.0575	466.2	8.392	17.18	8.79	1.36
	48.23	19.95	66.12	0.00	0.0618	11.26	495.5	415.03	0.0575	467.5	8.415	17.23	8.83	1.36
	49.22	19.90	66.09	0.00	0.0617	11.27	495.8	415.41	0.0575	466.6	8.399	17.20	8.80	1.35
	50.23	19.91	66.09	0.00	0.0619	11.27	495.7	415.34	0.0577	467.8	8.421	17.25	8.84	1.35
	51.22	19.93	66.09	0.00	0.0617	11.27	496.0	415.62	0.0576	468.3	8.430	17.27	8.86	1.36
	52.23	19.93	66.09	0.00	0.0618	11.27	495.9	415.49	0.0576	468.4	8.431	17.27	8.86	1.36
	53.22	19.93	66.12	0.00	0.0618	11.28	496.2	415.58	0.0576	469.0	8.442	17.28	8.88	1.36
	54.23	19.93	66.09	0.00	0.0618	11.27	496.0	415.58	0.0577	469.1	8.443	17.29	8.88	1.35
	55.22	19.91	66.12	0.00	0.0618	11.27	496.1	415.48	0.0577	469.3	8.448	17.30	8.89	1.35
	56.23	19.93	66.12	0.00	0.0619	11.28	496.2	415.56	0.0577	469.3	8.448	17.30	8.89	1.36
	57.22	19.93	66.12	0.00	0.0619	11.28	496.5	415.89	0.0577	469.6	8.454	17.31	8.90	1.36
	58.23	19.93	66.12	0.00	0.0619	11.28	496.5	415.87	0.0578	470.0	8.460	17.32	8.91	1.36
	59.30	19.93	66.12	0.00	0.0619	11.28	496.5	415.88	0.0578	470.7	8.473	17.35	8.93	1.36
	60.23	19.91	66.09	0.00	0.0618	11.28	496.4	415.90	0.0577	469.8	8.456	17.32	8.90	1.36
	61.22	19.95	66.09	0.00	0.0619	11.29	496.7	416.18	0.0578	471.3	8.483	17.38	8.95	1.36
	62.22	19.91	66.09	0.00	0.0619	11.29	496.9	416.27	0.0579	471.4	8.485	17.38	8.95	1.35
	63.30	19.91	66.09	0.00	0.0618	11.29	496.6	416.05	0.0579	471.5	8.487	17.38	8.95	1.36
	64.22	19.93	66.12	0.00	0.0619	11.29	496.6	415.92	0.0579	471.7	8.491	17.38	8.96	1.36
	65.30	19.93	66.09	0.00	0.0619	11.29	497.0	416.39	0.0580	472.5	8.505	17.42	8.99	1.35
	66.22	19.93	66.09	0.00	0.0619	11.29	496.7	416.20	0.0579	469.5	8.452	17.31	8.89	1.36
	67.23	19.93	66.09	0.00	0.0619	11.30	497.2	416.63	0.0580	473.2	8.517	17.45	9.01	1.36
	68.22	19.93	66.09	0.00	0.0620	11.30	497.1	416.49	0.0580	472.1	8.497	17.40	8.97	1.36
	69.23	19.93	66.12	0.00	0.0620	11.31	497.5	416.67	0.0583	474.6	8.542	17.49	9.05	1.36
	70.22	19.93	66.12	0.00	0.0619	11.30	497.2	416.47	0.0580	473.1	8.515	17.43	9.00	1.36
	71.23	19.93	66.12	0.00	0.0620	11.29	497.0	416.26	0.0581	472.8	8.511	17.43	9.00	1.36
	72.22	19.91	66.12	0.00	0.0618	11.30	497.1	416.35	0.0581	474.1	8.534	17.47	9.04	1.36
	73.23	19.93	66.09	0.00	0.0619	11.30	497.3	416.69	0.0581	473.9	8.530	17.47	9.03	1.36
	74.22	19.95	66.09	0.00	0.0619	11.31	497.6	416.94	0.0581	474.2	8.535	17.48	9.04	1.36
	75.23	19.95	66.09	0.00	0.0619	11.30	497.3	416.73	0.0582	473.7	8.527	17.47	9.03	1.36
	76.22	19.95	66.09	0.00	0.0620	11.31	497.7	417.05	0.0581	474.7	8.544	17.50	9.06	1.36
	77.23	19.89	66.07	0.00	0.0619	11.30	497.3	416.80	0.0582	474.7	8.544	17.50	9.05	1.35
	78.22	19.93	66.09	0.00	0.0620	11.31	497.8	417.09	0.0583	475.3	8.555	17.52	9.07	1.36
	79.23	19.95	66.12	0.00	0.0619	11.31	497.6	416.78	0.0582	473.6	8.525	17.46	9.02	1.36
	80.22	19.93	66.09	0.00	0.0620	11.32	498.0	417.27	0.0583	475.9	8.566	17.54	9.09	1.36
	81.23	19.96	66.11	0.00	0.0620	11.32	498.1	417.31	0.0583	475.9	8.567	17.54	9.10	1.36
	82.22	19.95	66.12	0.00	0.0621	11.32	498.2	417.30	0.0584	476.7	8.580	17.57	9.12	1.36
	83.23	19.95	66.09	0.00	0.0620	11.32	498.2	417.44	0.0584	476.6	8.579	17.57	9.12	1.36
	84.22	19.95	66.12	0.00	0.0621	11.32	498.0	417.14	0.0584	476.3	8.573	17.55	9.11	1.36
	85.23	19.95	66.12	0.00	0.0620	11.33	498.4	417.50	0.0583	476.2	8.572	17.55	9.10	1.36
	86.22	19.91	66.12	0.00	0.0621	11.32	498.2	417.27	0.0585	476.5	8.577	17.56	9.11	1.36
	87.23	19.95	66.09	0.00	0.0619	11.32	498.3	417.52	0.0582	476.0	8.567	17.55	9.10	1.36
	88.23	19.95	66.12	0.00	0.0621	11.33	498.7	417.75	0.0585	477.4	8.594	17.60	9.14	1.36
	89.23	19.95	66.12	0.00	0.0619	11.33	498.5	417.53	0.0584	477.7	8.599	17.61	9.15	1.36
	90.23	19.95	66.12	0.00	0.0621	11.33	498.5	417.60	0.0585	477.6	8.597	17.60	9.15	1.36
	91.22	19.95	66.06	0.00	0.0620	11.34	498.8	418.16	0.0584	477.9	8.602	17.63	9.15	1.36
	92.23	19.95	66.12	0.00	0.0620	11.34	498.9	417.89	0.0584	478.2	8.607	17.62	9.16	1.36
	93.22	19.95	66.12	0.00	0.0620	11.34	499.1	418.06	0.0585	479.1	8.623	17.66	9.19	1.36
	94.23	19.96	66.12	0.00	0.0620	11.34	498.9	417.92	0.0585	478.6	8.615	17.64	9.18	1.36
	95.22	19.95	66.12	0.00	0.0620	11.34	499.0	417.97	0.0586	478.7	8.617	17.64	9.18	1.36
	96.23	19.95	66.12	0.00	0.0620	11.34	498.9	417.88	0.0583	477.6	8.597	17.60	9.15	1.36
	97.22	19.95	66.09	0.00	0.0621	11.34	499.0	418.18	0.0585	477.7	8.599	17.61	9.15	1.36
	98.23	19.96	66.09	0.00	0.0620	11.34	498.9	418.05	0.0584	478.5	8.612	17.64	9.17	1.36
	99.22	19.96	66.09	0.00	0.0621	11.34	499.0	418.18	0.0586	478.9	8.620	17.66	9.19	1.36
	100.23	19.95	66.09	0.00	0.0621	11.35	499.5	418.58	0.0586	480.7	8.652	17.72	9.24	1.36
	101.22	19.96	66.09	0.00	0.0622	11.35	499.2	418.32	0.0588	480.5	8.650	17.72	9.24	1.36
	102.23	19.96	66.09	0.00	0.0622	11.35	499.3	418.38	0.0588	479.8	8.637	17.69	9.22	1.36
	103.22	19.96	66.09	0.00	0.0622	11.35	499.5	418.59	0.0587	480.3	8.645	17.71	9.23	1.36
	104.23	19.96	66.12	0.00	0.0622	11.35	499.5	418.46	0.0588	481.2	8.661	17.74	9.26	1.36
	105.22	19.94	66.09	0.00	0.0622	11.35	499.5	418.52	0.0588	480.9	8.656	17.73	9.25	1.36
	106.23	19.96	66.12	0.00	0.0622	11.35	499.5	418.44	0.0588	480.1	8.643	17.70	9.23	1.36
	107.23	19.98	66.12	0.00	0.0622	11.35	499.5	418.45	0.0588	481.5	8.667	17.75	9.27	1.36
	108.23	19.96	66.12	0.00	0.0622	11.36	499.7	418.57	0.0589	481.4	8.665	17.74	9.26	1.36
	109.22	19.96	66.12	0.00	0.0621	11.36	499.9	418.79	0.0588	482.4	8.684	17.78	9.30	1.36
	110.23	19.98	66.12	0.00	0.0622	11.36	500.0	418.84	0.0589	482.4	8.684	17.78	9.30	1.36
	111.31	19.96	66.12	0.00	0.0620	11.36	499.9	418.74	0.0588	482.7	8.688	17.79	9.30	1.36
	112.23	19.98	66.12	0.00	0.0622	11.36	500.0	418.90	0.0589	482.6	8.687	17.79	9.30	1.36
	113.25	19.98	66.09	249.90	0.0621	11.37	500.2	419.20	0.0589	483.6	8.704	17.83	9.33	1.36
	114.23	20.00	66.12	0.00	0.0622	11.37	500.1	418.97	0.0588	483.2	8.697	17.81	9.32	1.36
	115.25	19.98	66.12	0.00	0.0622	11.37	500.2	419.01	0.0589	483.0	8.694	17.80	9.31	1.36
	116.23	19.98	66.12	0.00	0.0622	11.37	500.2	419.07	0.0589	483.2	8.698	17.81	9.32	1.36
	117.25	20.01	66.11	0.00	0.0622	11.37	500.2	419.15	0.0589	483.8	8.709	17.84	9.34	1.36
	118.23	20.00	66.12	0.00	0.0622	11.37	500.3	419.17	0.0590	484.1	8.714	17.85	9.35	1.36
	119.25	19.98	66.09	0.00	0.0622	11.36	500.0	419.02	0.0589	483.0	8.694	17.81	9.32	1.36
	120.23	20.01	66.12	0.00	0.0622	11.38	500.5	419.34	0.0590	484.3	8.718	17.86	9.36	1.36
