Mar 14 2018 at 10:38:32
Frequency: 1.00Hz.
CO2
Zero:  Value:0.91  Date:May 19 2009 at 7:53:33 AM
Span:  Value:1.00  Date:May 19 2009 at 8:00:06 AM
H2O
Zero:  Value:0.77  Date:May 19 2009 at 7:54:01 AM
Span:  Value:1.01  Date:28 Jun 2004	 at 08:29:05	
Very cloudy and cold, periodic droplets, fog
	Relative Time	Temperature	Pressure	Aux Input	CO2 Absorptance	CO2 mmol/m3	CO2 mg/m3	CO2 umol/mol	H2O Absorptance	H2O mmol/m3	H2O g/m3	H2O mmol/mol	H2O(°C)	Cooler Voltage
	0.06	18.20	66.12	0.00	0.0623	11.39	501.1	417.25	0.0567	458.0	8.245	16.78	8.44	1.34
	1.05	18.22	66.12	0.00	0.0623	11.40	501.4	417.54	0.0566	457.9	8.243	16.78	8.44	1.34
	2.06	18.20	66.14	0.00	0.0623	11.39	501.2	417.16	0.0567	459.4	8.268	16.82	8.48	1.33
	3.05	18.22	66.12	0.00	0.0623	11.41	501.8	417.86	0.0568	458.9	8.261	16.81	8.47	1.34
	4.06	18.22	66.12	0.00	0.0623	11.41	502.0	417.98	0.0567	458.6	8.254	16.80	8.46	1.33
	5.05	18.22	66.14	0.00	0.0623	11.38	500.9	416.90	0.0568	458.6	8.255	16.80	8.46	1.34
	6.06	18.20	66.12	0.00	0.0624	11.40	501.5	417.54	0.0568	460.2	8.283	16.86	8.51	1.34
	7.12	18.20	66.12	0.00	0.0623	11.40	501.7	417.73	0.0568	459.2	8.265	16.82	8.48	1.34
	8.06	18.22	66.12	0.00	0.0624	11.40	501.8	417.84	0.0570	460.1	8.281	16.86	8.51	1.33
	9.06	18.23	66.12	0.00	0.0624	11.41	501.9	417.93	0.0569	459.8	8.277	16.85	8.50	1.34
	10.05	18.23	66.12	0.00	0.0624	11.41	502.1	418.13	0.0568	459.4	8.269	16.83	8.48	1.33
	11.06	18.23	66.12	0.00	0.0624	11.41	502.0	418.01	0.0569	459.3	8.267	16.83	8.48	1.34
	12.05	18.22	66.12	0.00	0.0624	11.40	501.7	417.80	0.0569	459.9	8.278	16.85	8.50	1.34
	13.06	18.22	66.09	0.00	0.0624	11.40	501.8	418.01	0.0568	459.9	8.279	16.86	8.50	1.34
	14.05	18.23	66.12	0.00	0.0623	11.40	501.7	417.79	0.0569	461.0	8.299	16.89	8.54	1.33
	15.06	18.22	66.14	0.00	0.0623	11.40	501.6	417.51	0.0568	460.8	8.295	16.88	8.53	1.33
	16.05	18.20	66.12	0.00	0.0623	11.42	502.3	418.21	0.0568	460.2	8.284	16.86	8.51	1.33
	17.06	18.18	66.14	0.00	0.0624	11.42	502.5	418.18	0.0569	460.3	8.285	16.86	8.51	1.34
	18.12	18.20	66.14	0.00	0.0624	11.42	502.5	418.27	0.0568	460.1	8.283	16.85	8.51	1.34
	19.06	18.20	66.09	0.00	0.0624	11.42	502.7	418.74	0.0569	460.5	8.289	16.88	8.52	1.33
	20.12	18.20	66.14	0.00	0.0623	11.42	502.3	418.10	0.0570	460.9	8.297	16.88	8.53	1.33
	21.06	18.20	66.14	0.00	0.0624	11.43	502.8	418.51	0.0570	461.2	8.301	16.89	8.54	1.34
	22.12	18.18	66.12	0.00	0.0623	11.42	502.3	418.25	0.0571	461.7	8.311	16.91	8.56	1.34
	23.06	18.20	66.12	0.00	0.0624	11.42	502.5	418.38	0.0569	460.2	8.283	16.86	8.51	1.34
	24.06	18.20	66.12	0.00	0.0624	11.43	503.0	418.84	0.0569	461.7	8.311	16.92	8.56	1.34
	25.05	18.22	66.12	0.00	0.0626	11.43	502.8	418.69	0.0571	461.8	8.312	16.92	8.56	1.34
	26.06	18.22	66.12	0.00	0.0626	11.43	503.0	418.85	0.0571	461.8	8.312	16.92	8.56	1.33
	27.05	18.23	66.14	0.00	0.0625	11.43	503.1	418.83	0.0571	461.3	8.304	16.90	8.55	1.34
	28.06	18.23	66.14	250.00	0.0625	11.43	503.1	418.81	0.0570	461.5	8.307	16.90	8.55	1.34
	29.05	18.22	66.14	0.00	0.0625	11.43	503.1	418.74	0.0571	461.9	8.314	16.92	8.56	1.34
	30.06	18.22	66.14	0.00	0.0624	11.43	503.0	418.68	0.0571	461.6	8.310	16.91	8.56	1.34
	31.05	18.20	66.14	0.00	0.0625	11.44	503.4	419.03	0.0571	462.3	8.321	16.93	8.58	1.34
	32.06	18.20	66.12	0.00	0.0625	11.44	503.2	419.03	0.0571	462.4	8.324	16.94	8.58	1.33
	33.05	18.22	66.14	0.00	0.0625	11.44	503.4	419.02	0.0571	463.2	8.338	16.96	8.61	1.34
	34.06	18.23	66.12	0.00	0.0625	11.45	503.6	419.38	0.0571	462.4	8.324	16.94	8.58	1.34
	35.06	18.18	66.12	0.00	0.0625	11.45	503.8	419.43	0.0570	461.5	8.308	16.91	8.55	1.34
	36.06	18.22	66.09	0.00	0.0626	11.46	504.1	419.91	0.0571	463.4	8.341	16.98	8.61	1.33
	37.12	18.22	66.12	0.00	0.0626	11.46	504.1	419.79	0.0572	463.3	8.340	16.98	8.61	1.34
	38.08	18.20	66.12	250.00	0.0625	11.45	503.7	419.42	0.0571	463.8	8.348	16.99	8.62	1.34
	39.06	18.22	66.12	0.00	0.0625	11.46	504.0	419.70	0.0571	462.7	8.329	16.95	8.59	1.34
	40.06	18.22	66.09	0.00	0.0627	11.47	504.5	420.27	0.0572	463.9	8.351	17.00	8.63	1.34
	41.06	18.22	66.12	0.00	0.0626	11.46	504.4	420.02	0.0571	463.4	8.342	16.98	8.61	1.34
	42.05	18.23	66.14	0.00	0.0627	11.47	504.5	420.00	0.0571	462.8	8.331	16.95	8.59	1.33
	43.06	18.22	66.14	0.00	0.0627	11.47	504.8	420.15	0.0572	463.3	8.340	16.97	8.61	1.34
	44.05	18.20	66.12	0.00	0.0626	11.46	504.1	419.78	0.0572	463.9	8.350	17.00	8.63	1.34
	45.06	18.20	66.12	0.00	0.0626	11.47	504.5	420.10	0.0573	464.6	8.363	17.02	8.65	1.34
	46.05	18.20	66.14	0.00	0.0626	11.47	504.5	419.91	0.0574	464.8	8.367	17.02	8.66	1.34
	47.06	18.20	66.14	0.00	0.0626	11.48	505.1	420.42	0.0571	464.0	8.352	16.99	8.63	1.34
	48.05	18.20	66.12	0.00	0.0626	11.48	504.9	420.44	0.0573	464.9	8.368	17.03	8.66	1.34
	49.06	18.18	66.12	0.00	0.0627	11.49	505.5	420.88	0.0573	464.4	8.360	17.01	8.64	1.33
	50.05	18.18	66.09	0.00	0.0627	11.48	505.1	420.66	0.0574	464.2	8.356	17.01	8.64	1.34
	51.06	18.18	66.12	0.00	0.0627	11.48	505.2	420.65	0.0572	464.7	8.365	17.02	8.65	1.34
	52.05	18.18	66.12	0.00	0.0627	11.49	505.4	420.76	0.0573	464.6	8.363	17.02	8.65	1.34
	53.06	18.18	66.12	0.00	0.0628	11.49	505.5	420.89	0.0574	465.6	8.380	17.06	8.68	1.34
	54.06	18.20	66.12	0.00	0.0627	11.49	505.7	421.09	0.0574	465.2	8.374	17.04	8.67	1.33
	55.06	18.20	66.12	0.00	0.0627	11.49	505.6	420.98	0.0573	465.5	8.378	17.05	8.68	1.34
	56.06	18.20	66.14	0.00	0.0627	11.49	505.5	420.76	0.0574	465.7	8.383	17.06	8.69	1.34
	57.06	18.20	66.12	0.00	0.0627	11.50	505.8	421.16	0.0573	464.9	8.367	17.03	8.66	1.34
	58.06	18.18	66.12	0.00	0.0627	11.50	506.0	421.33	0.0572	464.8	8.366	17.03	8.65	1.34
	59.05	18.18	66.09	0.00	0.0628	11.51	506.3	421.74	0.0574	465.8	8.384	17.07	8.69	1.34
	60.06	18.17	66.12	0.00	0.0628	11.51	506.5	421.66	0.0574	465.6	8.380	17.05	8.68	1.34
	61.05	18.18	66.12	0.00	0.0628	11.50	505.9	421.23	0.0574	466.2	8.392	17.08	8.70	1.34
	62.06	18.20	66.12	0.00	0.0629	11.51	506.4	421.64	0.0575	465.2	8.373	17.04	8.67	1.34
	63.05	18.18	66.12	0.00	0.0629	11.50	506.1	421.37	0.0576	466.2	8.391	17.08	8.70	1.34
	64.06	18.18	66.12	0.00	0.0627	11.51	506.4	421.62	0.0573	465.6	8.381	17.06	8.68	1.34
	65.05	18.22	66.12	0.00	0.0628	11.51	506.3	421.57	0.0574	466.5	8.397	17.09	8.71	1.34
	66.06	18.22	66.12	0.00	0.0628	11.52	506.7	421.93	0.0574	465.7	8.382	17.06	8.69	1.34
	67.05	18.20	66.09	0.00	0.0627	11.53	507.1	422.42	0.0573	465.4	8.377	17.06	8.67	1.34
	68.06	18.20	66.12	0.00	0.0628	11.52	506.9	422.05	0.0574	466.0	8.389	17.07	8.70	1.34
	69.12	18.20	66.12	0.00	0.0629	11.52	507.0	422.16	0.0574	465.6	8.380	17.06	8.68	1.34
	70.06	18.20	66.14	0.00	0.0630	11.53	507.4	422.29	0.0574	466.4	8.395	17.08	8.71	1.34
	71.06	18.20	66.12	0.00	0.0629	11.54	507.6	422.63	0.0575	466.3	8.394	17.09	8.70	1.34
	72.06	18.18	66.12	0.00	0.0629	11.54	507.7	422.70	0.0575	465.8	8.385	17.06	8.69	1.34
	73.06	18.20	66.12	0.00	0.0630	11.54	507.8	422.79	0.0575	466.8	8.402	17.10	8.72	1.34
	74.06	18.20	66.16	0.00	0.0629	11.55	508.1	422.79	0.0576	466.5	8.397	17.08	8.71	1.34
	75.06	18.20	66.12	0.00	0.0629	11.55	508.0	422.98	0.0574	467.1	8.409	17.11	8.73	1.34
	76.05	18.20	66.12	0.00	0.0631	11.54	507.7	422.74	0.0575	467.0	8.405	17.11	8.72	1.34
	77.06	18.22	66.12	0.00	0.0631	11.55	508.2	423.18	0.0575	467.2	8.410	17.12	8.73	1.34
	78.05	18.20	66.09	0.00	0.0629	11.55	508.3	423.39	0.0575	466.3	8.394	17.09	8.70	1.34
	79.06	18.22	66.12	0.00	0.0630	11.56	508.6	423.55	0.0574	466.6	8.398	17.09	8.71	1.34
	80.05	18.22	66.14	0.00	0.0630	11.55	508.4	423.19	0.0576	467.4	8.413	17.12	8.74	1.34
	81.06	18.18	66.09	0.00	0.0630	11.56	508.4	423.50	0.0575	467.3	8.412	17.13	8.73	1.34
	82.05	18.20	66.09	0.00	0.0630	11.56	508.8	423.76	0.0575	467.9	8.422	17.15	8.75	1.34
	83.06	18.22	66.12	0.00	0.0631	11.56	508.6	423.49	0.0577	468.9	8.441	17.18	8.79	1.34
	84.05	18.22	66.12	0.00	0.0631	11.56	508.6	423.55	0.0576	468.7	8.437	17.17	8.78	1.34
	85.06	18.20	66.12	0.00	0.0632	11.57	508.9	423.76	0.0576	467.6	8.416	17.13	8.74	1.34
	86.12	18.20	66.12	0.00	0.0630	11.58	509.4	424.11	0.0575	466.4	8.395	17.09	8.71	1.34
	87.06	18.20	66.12	0.00	0.0630	11.57	509.1	423.94	0.0575	468.7	8.437	17.17	8.78	1.34
	88.06	18.20	66.14	0.00	0.0631	11.58	509.6	424.17	0.0575	467.4	8.413	17.12	8.74	1.34
	89.06	18.22	66.12	0.00	0.0631	11.59	509.8	424.53	0.0575	466.6	8.399	17.10	8.71	1.34
	90.06	18.20	66.12	0.00	0.0631	11.58	509.4	424.17	0.0576	468.0	8.425	17.15	8.76	1.34
	91.06	18.22	66.14	0.00	0.0631	11.57	509.2	423.81	0.0577	468.5	8.433	17.16	8.77	1.34
	92.06	18.20	66.12	0.00	0.0631	11.59	509.9	424.57	0.0576	467.0	8.406	17.11	8.73	1.34
	93.05	18.22	66.12	0.00	0.0631	11.59	510.0	424.69	0.0574	467.6	8.418	17.13	8.75	1.34
	94.06	18.20	66.14	0.00	0.0631	11.59	509.8	424.34	0.0575	467.5	8.415	17.12	8.74	1.34
	95.05	18.18	66.12	0.00	0.0632	11.60	510.3	424.91	0.0576	467.2	8.410	17.12	8.73	1.34
	96.06	18.18	66.14	0.00	0.0633	11.60	510.3	424.68	0.0576	467.1	8.408	17.11	8.73	1.34
	97.05	18.20	66.14	0.00	0.0633	11.60	510.3	424.73	0.0575	465.9	8.385	17.06	8.69	1.34
	98.06	18.22	66.12	0.00	0.0631	11.59	510.1	424.78	0.0574	466.4	8.396	17.09	8.71	1.34
	99.05	18.20	66.12	0.00	0.0632	11.60	510.3	424.91	0.0574	466.5	8.398	17.09	8.71	1.34
	100.06	18.20	66.12	0.00	0.0631	11.60	510.5	425.09	0.0573	466.9	8.405	17.11	8.72	1.34
	101.12	18.18	66.12	0.00	0.0631	11.60	510.6	425.14	0.0574	467.7	8.419	17.13	8.75	1.34
	102.06	18.20	66.14	0.00	0.0632	11.61	511.0	425.34	0.0573	466.6	8.399	17.09	8.71	1.34
	103.06	18.20	66.12	0.00	0.0633	11.62	511.1	425.55	0.0576	466.0	8.388	17.07	8.69	1.34
	104.06	18.18	66.12	0.00	0.0633	11.61	510.8	425.29	0.0574	466.3	8.393	17.08	8.70	1.34
	105.06	18.18	66.12	0.00	0.0632	11.61	511.0	425.49	0.0574	466.0	8.388	17.07	8.69	1.34
	106.06	18.20	66.12	0.00	0.0633	11.61	510.7	425.23	0.0574	465.6	8.380	17.06	8.68	1.34
	107.06	18.20	66.12	0.00	0.0632	11.61	510.9	425.40	0.0573	465.8	8.384	17.06	8.69	1.34
	108.06	18.20	66.17	0.00	0.0632	11.62	511.1	425.22	0.0572	466.9	8.404	17.09	8.72	1.34
	109.06	18.18	66.12	0.00	0.0633	11.62	511.5	425.87	0.0573	465.3	8.376	17.05	8.67	1.34
	110.05	18.18	66.14	0.00	0.0634	11.62	511.5	425.70	0.0574	465.1	8.372	17.03	8.67	1.34
	111.06	18.22	66.09	0.00	0.0633	11.62	511.3	425.91	0.0574	466.1	8.390	17.08	8.70	1.34
	112.05	18.18	66.12	0.00	0.0633	11.62	511.4	425.75	0.0574	465.9	8.386	17.07	8.69	1.34
	113.06	18.18	66.12	0.00	0.0633	11.62	511.5	425.85	0.0574	465.9	8.385	17.07	8.69	1.34
	114.05	18.17	66.12	0.00	0.0632	11.63	511.8	426.11	0.0573	464.8	8.366	17.03	8.65	1.34
	115.06	18.17	66.12	0.00	0.0633	11.63	511.6	425.96	0.0573	465.1	8.372	17.04	8.66	1.34
	116.05	18.17	66.12	0.00	0.0633	11.63	511.8	426.06	0.0573	465.1	8.371	17.04	8.66	1.34
	117.06	18.17	66.12	0.00	0.0634	11.62	511.3	425.70	0.0573	465.5	8.379	17.05	8.68	1.34
	118.12	18.17	66.12	0.00	0.0634	11.63	511.7	425.99	0.0574	465.1	8.371	17.04	8.66	1.34
	119.06	18.17	66.12	0.00	0.0632	11.63	511.9	426.21	0.0574	464.9	8.368	17.03	8.66	1.34
	120.06	18.17	66.12	0.00	0.0632	11.64	512.1	426.32	0.0574	464.3	8.357	17.01	8.64	1.34
	121.06	18.18	66.14	0.00	0.0633	11.64	512.0	426.11	0.0572	464.5	8.362	17.01	8.65	1.34
	122.06	18.13	66.12	0.00	0.0633	11.64	512.1	426.29	0.0572	465.0	8.369	17.03	8.66	1.34
	123.06	18.15	66.12	0.00	0.0632	11.63	511.7	425.97	0.0580	473.4	8.521	17.34	8.92	1.34
	124.06	18.15	66.12	0.00	0.0633	11.63	511.8	426.05	0.0581	473.8	8.528	17.35	8.94	1.34
	125.06	18.17	66.14	0.00	0.0634	11.63	511.8	425.93	0.0581	473.5	8.523	17.34	8.93	1.34
