Mar 14 2018 at 8:59:43
Frequency: 1.00Hz.
CO2
Zero:  Value:0.91  Date:May 19 2009 at 7:53:33 AM
Span:  Value:1.00  Date:May 19 2009 at 8:00:06 AM
H2O
Zero:  Value:0.77  Date:May 19 2009 at 7:54:01 AM
Span:  Value:1.01  Date:28 Jun 2004	 at 08:29:05	
Redoing  plots from rainy day
	Relative Time	Temperature	Pressure	Aux Input	CO2 Absorptance	CO2 mmol/m3	CO2 mg/m3	CO2 umol/mol	H2O Absorptance	H2O mmol/m3	H2O g/m3	H2O mmol/mol	H2O(°C)	Cooler Voltage
	0.02	22.44	66.01	0.00	0.0612	11.12	489.2	413.87	0.0553	441.6	7.949	16.44	8.11	1.40
	1.03	22.44	66.01	0.00	0.0610	11.12	489.5	414.16	0.0552	442.1	7.958	16.46	8.13	1.40
	2.09	22.44	66.01	0.00	0.0612	11.13	489.6	414.23	0.0553	441.9	7.954	16.45	8.12	1.40
	3.02	22.42	66.01	0.00	0.0611	11.12	489.4	414.09	0.0552	443.3	7.980	16.50	8.17	1.40
	4.09	22.44	66.01	0.00	0.0611	11.12	489.1	413.83	0.0552	441.5	7.946	16.44	8.11	1.40
	5.02	22.44	66.01	0.00	0.0610	11.13	489.5	414.19	0.0556	446.9	8.044	16.64	8.29	1.40
	6.03	22.42	66.03	0.00	0.0611	11.13	489.6	414.07	0.0556	446.5	8.036	16.61	8.27	1.40
	7.02	22.42	66.01	0.00	0.0612	11.13	489.6	414.24	0.0556	446.5	8.037	16.62	8.28	1.40
	8.03	22.42	66.01	0.00	0.0611	11.12	489.5	414.13	0.0556	446.4	8.035	16.62	8.27	1.40
	9.02	22.40	66.01	0.00	0.0612	11.13	489.8	414.34	0.0557	446.3	8.034	16.61	8.27	1.40
	10.03	22.40	66.04	0.00	0.0611	11.12	489.4	413.90	0.0557	446.4	8.036	16.61	8.27	1.40
	11.02	22.42	66.01	0.00	0.0612	11.12	489.2	413.93	0.0558	446.3	8.033	16.61	8.27	1.40
	12.03	22.42	66.01	0.00	0.0611	11.13	489.6	414.25	0.0558	447.2	8.050	16.65	8.30	1.40
	13.02	22.44	65.99	0.00	0.0613	11.13	489.6	414.42	0.0559	447.6	8.056	16.67	8.31	1.40
	14.03	22.41	66.01	0.00	0.0612	11.13	489.8	414.36	0.0559	449.5	8.091	16.73	8.37	1.40
	15.02	22.40	65.99	0.00	0.0611	11.13	489.8	414.51	0.0560	450.4	8.108	16.77	8.40	1.40
	16.03	22.40	66.01	0.00	0.0613	11.13	489.6	414.24	0.0562	449.9	8.098	16.75	8.39	1.40
	17.02	22.42	65.99	0.00	0.0612	11.13	489.5	414.34	0.0561	450.4	8.107	16.77	8.40	1.40
	18.03	22.42	66.01	0.00	0.0612	11.13	489.7	414.34	0.0562	451.6	8.129	16.81	8.44	1.40
	19.02	22.42	66.01	0.00	0.0613	11.13	489.6	414.26	0.0563	452.4	8.144	16.84	8.47	1.40
	20.03	22.42	66.01	0.00	0.0611	11.13	489.8	414.36	0.0561	452.9	8.151	16.86	8.48	1.40
	21.02	22.42	66.04	0.00	0.0612	11.13	489.5	414.00	0.0564	453.3	8.159	16.87	8.50	1.40
	22.03	22.42	66.01	0.00	0.0611	11.14	490.0	414.57	0.0563	454.7	8.184	16.93	8.54	1.40
	23.09	22.44	66.01	0.00	0.0611	11.12	489.3	413.99	0.0562	452.5	8.144	16.84	8.47	1.40
	24.03	22.42	66.01	0.00	0.0613	11.13	489.9	414.45	0.0565	455.0	8.189	16.94	8.55	1.40
	25.09	22.41	66.01	0.00	0.0611	11.13	489.5	414.14	0.0564	454.5	8.182	16.92	8.54	1.40
	26.02	22.43	66.03	0.00	0.0612	11.14	490.0	414.44	0.0566	456.3	8.214	16.98	8.60	1.40
	27.03	22.42	66.01	0.00	0.0612	11.14	490.0	414.53	0.0566	456.5	8.218	17.00	8.60	1.40
	28.02	22.41	66.01	0.00	0.0611	11.14	490.0	414.54	0.0566	457.5	8.234	17.03	8.63	1.40
	29.03	22.41	66.01	0.00	0.0612	11.15	490.4	414.89	0.0567	459.8	8.276	17.11	8.71	1.40
	30.02	22.39	66.01	0.00	0.0611	11.14	490.3	414.80	0.0568	458.9	8.260	17.08	8.68	1.40
	31.03	22.41	65.99	0.00	0.0612	11.13	489.7	414.39	0.0567	457.7	8.238	17.04	8.64	1.40
	32.02	22.41	66.01	0.00	0.0611	11.14	490.1	414.62	0.0566	459.3	8.267	17.10	8.69	1.40
	33.03	22.39	66.01	0.00	0.0613	11.15	490.5	414.98	0.0569	460.9	8.297	17.16	8.74	1.40
	34.02	22.41	66.01	0.00	0.0612	11.15	490.5	414.98	0.0569	460.6	8.291	17.15	8.73	1.40
	35.03	22.42	66.01	0.00	0.0612	11.15	490.7	415.20	0.0570	461.1	8.300	17.17	8.75	1.40
	36.02	22.42	66.03	0.00	0.0613	11.14	490.1	414.55	0.0569	460.2	8.283	17.13	8.72	1.40
	37.03	22.41	66.04	0.00	0.0612	11.16	490.9	415.17	0.0569	461.7	8.310	17.18	8.77	1.40
	38.02	22.41	66.01	0.00	0.0614	11.16	491.2	415.54	0.0573	464.2	8.356	17.28	8.85	1.40
	39.03	22.41	66.03	0.00	0.0612	11.15	490.5	414.82	0.0571	463.1	8.336	17.23	8.81	1.40
	40.02	22.37	66.01	0.00	0.0613	11.17	491.4	415.71	0.0574	465.4	8.378	17.32	8.89	1.40
	41.03	22.39	66.01	0.00	0.0614	11.16	491.2	415.52	0.0573	465.6	8.380	17.33	8.89	1.40
	42.02	22.41	65.99	0.00	0.0613	11.17	491.4	415.88	0.0573	465.6	8.380	17.34	8.89	1.40
	43.03	22.39	66.01	0.00	0.0613	11.16	491.0	415.38	0.0572	464.2	8.356	17.28	8.85	1.40
	44.03	22.41	66.01	0.00	0.0614	11.16	491.0	415.35	0.0573	465.1	8.371	17.31	8.88	1.40
	45.03	22.41	65.99	0.00	0.0614	11.17	491.3	415.76	0.0574	465.7	8.383	17.34	8.90	1.40
	46.03	22.39	66.01	0.00	0.0615	11.17	491.6	415.86	0.0576	467.6	8.417	17.41	8.96	1.40
	47.03	22.41	66.01	0.00	0.0613	11.18	491.7	416.02	0.0574	467.7	8.419	17.41	8.96	1.40
	48.03	22.41	66.03	0.00	0.0614	11.17	491.5	415.66	0.0575	467.0	8.407	17.38	8.94	1.40
	49.02	22.41	66.01	0.00	0.0615	11.18	491.9	416.11	0.0576	468.3	8.430	17.43	8.98	1.40
	50.03	22.41	66.01	0.00	0.0613	11.18	492.0	416.22	0.0576	469.4	8.449	17.47	9.01	1.40
	51.02	22.41	66.03	0.00	0.0615	11.18	491.8	415.95	0.0577	468.6	8.434	17.44	8.99	1.40
	52.03	22.42	66.01	0.00	0.0614	11.18	492.1	416.34	0.0578	470.2	8.463	17.50	9.04	1.40
	53.02	22.41	66.01	0.00	0.0615	11.19	492.1	416.36	0.0578	470.3	8.465	17.50	9.04	1.40
	54.03	22.37	66.01	0.00	0.0615	11.18	492.0	416.20	0.0577	469.1	8.444	17.46	9.00	1.40
	55.02	22.39	66.01	0.00	0.0615	11.18	492.0	416.21	0.0577	469.3	8.447	17.47	9.01	1.40
	56.03	22.37	65.99	0.00	0.0615	11.19	492.2	416.48	0.0579	470.1	8.461	17.50	9.03	1.40
	57.02	22.39	65.99	0.00	0.0615	11.20	492.6	416.87	0.0580	471.6	8.489	17.56	9.08	1.40
	58.03	22.39	66.01	0.00	0.0615	11.21	493.1	417.13	0.0580	473.8	8.529	17.64	9.15	1.40
	59.02	22.39	66.01	0.00	0.0615	11.19	492.5	416.62	0.0580	471.7	8.491	17.56	9.09	1.40
	60.03	22.39	66.01	0.00	0.0615	11.19	492.2	416.42	0.0579	471.5	8.487	17.55	9.08	1.40
	61.03	22.39	66.01	0.00	0.0616	11.20	492.6	416.74	0.0579	472.1	8.497	17.57	9.10	1.40
	62.03	22.39	65.99	0.00	0.0614	11.20	492.7	416.99	0.0580	472.7	8.508	17.60	9.12	1.40
	63.03	22.37	65.99	0.00	0.0616	11.20	492.6	416.86	0.0580	472.7	8.509	17.60	9.12	1.40
	64.03	22.41	66.04	0.00	0.0614	11.20	492.9	416.85	0.0581	474.2	8.535	17.64	9.16	1.40
	65.03	22.39	65.99	0.00	0.0615	11.21	493.3	417.45	0.0581	474.9	8.547	17.68	9.18	1.40
	66.03	22.39	66.01	0.00	0.0615	11.21	493.4	417.44	0.0582	475.5	8.558	17.70	9.20	1.40
	67.03	22.39	65.99	0.00	0.0616	11.22	493.6	417.71	0.0582	476.1	8.570	17.73	9.22	1.40
	68.03	22.39	66.01	0.00	0.0617	11.22	493.6	417.57	0.0583	476.5	8.578	17.74	9.24	1.40
	69.03	22.41	66.01	0.00	0.0615	11.21	493.4	417.42	0.0582	475.6	8.561	17.70	9.21	1.40
	70.03	22.39	65.99	0.00	0.0616	11.22	493.9	417.94	0.0584	477.0	8.585	17.76	9.25	1.40
	71.03	22.37	66.01	0.00	0.0615	11.21	493.3	417.30	0.0582	475.3	8.556	17.69	9.20	1.40
	72.02	22.39	66.01	0.00	0.0616	11.23	493.9	417.85	0.0584	477.8	8.600	17.78	9.28	1.40
	73.03	22.41	66.01	0.00	0.0617	11.23	494.0	417.96	0.0584	477.8	8.600	17.79	9.28	1.40
	74.02	22.39	66.04	0.00	0.0615	11.23	493.9	417.67	0.0583	477.3	8.591	17.76	9.26	1.40
	75.03	22.41	66.01	0.00	0.0617	11.23	494.1	418.01	0.0585	478.1	8.606	17.80	9.29	1.40
	76.02	22.39	66.01	0.00	0.0616	11.22	493.8	417.73	0.0584	477.1	8.588	17.76	9.26	1.40
	77.03	22.37	66.04	0.00	0.0616	11.23	494.0	417.71	0.0584	477.5	8.595	17.76	9.27	1.40
	78.03	22.39	66.02	250.00	0.0617	11.23	494.3	418.11	0.0585	478.3	8.610	17.80	9.29	1.40
	79.03	22.39	66.01	0.00	0.0616	11.23	494.3	418.13	0.0585	478.7	8.617	17.82	9.30	1.40
	80.09	22.37	66.01	0.00	0.0617	11.25	494.9	418.62	0.0588	480.8	8.655	17.90	9.37	1.39
	81.03	22.39	66.04	0.00	0.0617	11.24	494.7	418.36	0.0586	480.4	8.647	17.87	9.36	1.40
	82.02	22.39	66.01	0.00	0.0618	11.25	495.1	418.84	0.0588	481.1	8.661	17.91	9.38	1.40
	83.03	22.37	66.03	0.00	0.0618	11.25	494.9	418.49	0.0587	480.6	8.651	17.88	9.36	1.40
	84.09	22.37	66.01	0.00	0.0617	11.25	495.1	418.83	0.0588	481.4	8.665	17.92	9.39	1.40
	85.03	22.37	66.04	0.00	0.0618	11.24	494.8	418.35	0.0587	481.0	8.658	17.89	9.37	1.40
	86.03	22.39	66.01	0.00	0.0616	11.25	494.8	418.59	0.0586	480.6	8.651	17.89	9.36	1.39
	87.03	22.39	66.01	0.00	0.0618	11.25	495.2	418.93	0.0588	481.6	8.668	17.93	9.39	1.40
	88.03	22.35	66.04	0.00	0.0616	11.25	494.9	418.49	0.0586	481.2	8.661	17.90	9.38	1.40
	89.03	22.37	65.99	0.00	0.0617	11.27	495.7	419.45	0.0588	482.2	8.679	17.95	9.41	1.40
	90.03	22.35	66.01	0.00	0.0618	11.27	495.7	419.31	0.0589	483.0	8.694	17.98	9.43	1.40
	91.03	22.37	65.99	0.00	0.0617	11.27	495.7	419.48	0.0589	483.0	8.695	17.98	9.44	1.40
	92.03	22.37	66.01	0.00	0.0617	11.26	495.7	419.28	0.0589	483.1	8.695	17.98	9.44	1.39
	93.02	22.35	66.01	0.00	0.0616	11.25	495.2	418.87	0.0588	482.5	8.684	17.96	9.42	1.40
	94.03	22.36	66.01	0.00	0.0618	11.27	495.9	419.43	0.0591	483.8	8.709	18.01	9.46	1.39
	95.02	22.37	66.01	0.00	0.0618	11.27	496.0	419.59	0.0589	483.9	8.710	18.01	9.46	1.40
	96.03	22.37	66.01	0.00	0.0617	11.28	496.2	419.70	0.0590	484.7	8.724	18.04	9.49	1.40
	97.02	22.34	66.01	0.00	0.0619	11.28	496.2	419.72	0.0591	485.2	8.734	18.06	9.50	1.40
	98.03	22.36	66.01	0.00	0.0617	11.28	496.1	419.65	0.0589	484.7	8.725	18.04	9.49	1.40
	99.02	22.37	66.01	0.00	0.0619	11.28	496.5	420.00	0.0591	485.6	8.742	18.08	9.52	1.40
	100.03	22.37	66.01	0.00	0.0618	11.28	496.5	420.02	0.0591	485.1	8.732	18.06	9.50	1.39
	101.02	22.39	65.99	0.00	0.0618	11.28	496.5	420.14	0.0590	485.1	8.732	18.06	9.50	1.40
	102.03	22.37	66.01	0.00	0.0619	11.28	496.4	419.94	0.0591	485.5	8.739	18.07	9.51	1.40
	103.09	22.36	66.01	0.00	0.0618	11.29	496.9	420.35	0.0592	486.8	8.762	18.12	9.55	1.39
	104.03	22.37	66.01	0.00	0.0619	11.29	496.9	420.34	0.0593	486.5	8.758	18.11	9.54	1.39
	105.03	22.36	66.01	0.00	0.0618	11.30	497.2	420.54	0.0592	487.2	8.770	18.13	9.56	1.39
	106.03	22.36	66.01	0.00	0.0619	11.29	496.8	420.21	0.0592	486.1	8.750	18.09	9.53	1.40
	107.03	22.34	66.01	0.00	0.0619	11.30	497.2	420.57	0.0592	487.3	8.771	18.13	9.57	1.40
	108.03	22.35	66.01	0.00	0.0620	11.30	497.3	420.65	0.0593	487.7	8.778	18.15	9.58	1.40
	109.03	22.37	66.01	0.00	0.0620	11.30	497.1	420.46	0.0592	487.3	8.772	18.14	9.57	1.40
	110.03	22.36	66.01	0.00	0.0618	11.29	496.6	420.06	0.0592	486.5	8.757	18.11	9.54	1.39
	111.03	22.34	66.01	0.00	0.0619	11.32	497.9	421.10	0.0593	488.9	8.800	18.19	9.61	1.39
	112.03	22.36	66.01	0.00	0.0619	11.31	497.7	420.94	0.0593	488.4	8.791	18.18	9.60	1.40
	113.03	22.36	66.01	0.00	0.0619	11.32	497.9	421.13	0.0594	488.8	8.798	18.19	9.61	1.40
	114.02	22.36	66.01	0.00	0.0619	11.32	498.2	421.39	0.0594	489.8	8.816	18.23	9.64	1.40
	115.03	22.36	66.01	0.00	0.0620	11.31	497.8	421.05	0.0594	489.0	8.802	18.20	9.62	1.39
	116.02	22.36	66.01	0.00	0.0620	11.32	498.1	421.33	0.0595	489.6	8.813	18.22	9.64	1.39
	117.03	22.36	66.01	0.00	0.0620	11.32	498.2	421.42	0.0595	489.8	8.817	18.23	9.64	1.39
	118.02	22.34	66.04	0.00	0.0620	11.32	498.2	421.22	0.0595	489.6	8.812	18.21	9.64	1.40
	119.03	22.34	66.01	0.00	0.0620	11.33	498.4	421.57	0.0595	490.0	8.821	18.24	9.65	1.40
	120.02	22.36	66.01	0.00	0.0621	11.34	498.8	421.88	0.0596	491.1	8.840	18.28	9.68	1.39
	121.03	22.36	66.01	0.00	0.0621	11.34	499.0	422.04	0.0597	491.6	8.849	18.30	9.70	1.39
	122.09	22.36	66.01	0.00	0.0621	11.33	498.5	421.64	0.0595	490.3	8.826	18.25	9.66	1.39
	123.02	22.36	66.02	0.00	0.0621	11.35	499.2	422.21	0.0596	491.7	8.850	18.30	9.70	1.39
	124.03	22.36	66.01	0.00	0.0621	11.35	499.2	422.24	0.0596	491.5	8.848	18.29	9.70	1.40
	125.02	22.36	66.01	0.00	0.0621	11.34	498.8	421.95	0.0596	491.2	8.841	18.28	9.68	1.40
	126.03	22.36	66.01	0.00	0.0621	11.34	498.9	421.98	0.0596	491.4	8.845	18.29	9.69	1.39
	127.02	22.36	66.01	0.00	0.0621	11.35	499.5	422.51	0.0597	492.9	8.872	18.35	9.74	1.39
	128.03	22.36	66.04	0.00	0.0620	11.35	499.4	422.28	0.0596	492.2	8.859	18.31	9.71	1.39
	129.02	22.36	66.02	0.00	0.0621	11.33	498.7	421.83	0.0596	491.0	8.838	18.27	9.68	1.39
	130.03	22.36	66.01	0.00	0.0620	11.35	499.5	422.53	0.0596	492.6	8.866	18.33	9.73	1.40
	131.02	22.36	66.01	0.00	0.0622	11.36	499.7	422.68	0.0598	492.9	8.873	18.35	9.74	1.39
	132.03	22.36	66.01	0.00	0.0621	11.36	499.8	422.75	0.0597	493.1	8.876	18.35	9.74	1.40
	133.02	22.34	66.01	0.00	0.0622	11.36	499.9	422.83	0.0598	493.3	8.879	18.36	9.75	1.39
	134.03	22.36	66.01	0.00	0.0621	11.37	500.1	423.05	0.0598	493.9	8.890	18.38	9.77	1.39
	135.02	22.34	66.01	0.00	0.0622	11.37	500.4	423.21	0.0598	494.2	8.896	18.39	9.78	1.39
	136.03	22.34	65.99	0.00	0.0621	11.37	500.3	423.30	0.0597	493.8	8.889	18.39	9.76	1.40
	137.02	22.36	66.01	0.00	0.0622	11.37	500.4	423.28	0.0598	494.1	8.894	18.39	9.77	1.40
	138.03	22.34	66.01	0.00	0.0621	11.38	500.6	423.37	0.0597	494.7	8.905	18.41	9.79	1.39
	139.02	22.34	66.01	0.00	0.0623	11.38	500.5	423.34	0.0600	494.7	8.904	18.41	9.79	1.39
	140.02	22.32	66.01	0.00	0.0623	11.37	500.4	423.24	0.0599	494.3	8.897	18.39	9.78	1.39
	141.09	22.34	66.01	0.00	0.0623	11.37	500.4	423.21	0.0600	494.2	8.896	18.39	9.78	1.40
