Mar 15 2018 at 7:06:30
Frequency: 1.00Hz.
CO2
Zero:  Value:0.91  Date:May 19 2009 at 7:53:33 AM
Span:  Value:1.00  Date:May 19 2009 at 8:00:06 AM
H2O
Zero:  Value:0.77  Date:May 19 2009 at 7:54:01 AM
Span:  Value:1.01  Date:28 Jun 2004	 at 08:29:05	
Minor fog/overcast, bright with light wind, beware condensation
	Relative Time	Temperature	Pressure	Aux Input	CO2 Absorptance	CO2 mmol/m3	CO2 mg/m3	CO2 umol/mol	H2O Absorptance	H2O mmol/m3	H2O g/m3	H2O mmol/mol	H2O(°C)	Cooler Voltage
	0.61	16.54	67.86	0.00	0.0639	11.68	514.0	414.60	0.0599	488.1	8.786	17.32	9.30	1.39
	1.55	16.56	67.83	0.00	0.0639	11.67	513.5	414.39	0.0599	490.2	8.824	17.41	9.36	1.39
	2.55	16.56	67.83	0.00	0.0638	11.66	513.1	414.09	0.0599	491.0	8.838	17.43	9.39	1.39
	3.55	16.56	67.83	0.00	0.0639	11.67	513.7	414.54	0.0600	491.5	8.847	17.45	9.40	1.39
	4.55	16.56	67.83	0.00	0.0637	11.64	512.3	413.45	0.0602	493.8	8.888	17.53	9.47	1.39
	5.55	16.56	67.83	0.00	0.0638	11.66	513.2	414.16	0.0604	494.4	8.900	17.56	9.49	1.39
	6.55	16.56	67.83	0.00	0.0637	11.64	512.0	413.19	0.0604	493.2	8.878	17.51	9.45	1.39
	7.53	16.56	67.81	0.00	0.0637	11.66	512.8	414.00	0.0606	493.8	8.889	17.54	9.47	1.39
	8.55	16.57	67.83	0.00	0.0638	11.67	513.3	414.27	0.0606	496.2	8.931	17.62	9.54	1.39
	9.53	16.57	67.83	0.00	0.0638	11.66	513.0	414.00	0.0606	496.9	8.944	17.64	9.56	1.39
	10.55	16.56	67.86	0.00	0.0638	11.65	512.7	413.54	0.0609	499.6	8.993	17.73	9.64	1.39
	11.53	16.57	67.83	0.00	0.0637	11.65	512.5	413.60	0.0608	499.8	8.996	17.75	9.65	1.39
	12.55	16.56	67.83	0.00	0.0638	11.65	512.4	413.51	0.0607	497.8	8.961	17.68	9.59	1.39
	13.61	16.57	67.83	0.00	0.0637	11.64	512.2	413.33	0.0609	500.5	9.009	17.77	9.67	1.39
	14.55	16.57	67.83	0.00	0.0638	11.65	512.7	413.80	0.0608	499.6	8.992	17.74	9.64	1.39
	15.55	16.56	67.83	0.00	0.0638	11.65	512.6	413.63	0.0608	500.8	9.015	17.78	9.68	1.39
	19.38	16.57	67.86	0.00	0.0637	11.65	512.5	413.48	0.0609	501.0	9.019	17.78	9.69	1.39
	19.39	16.57	67.83	0.00	0.0638	11.65	512.5	413.59	0.0609	501.2	9.021	17.80	9.69	1.39
	19.39	16.57	67.83	0.00	0.0637	11.64	512.3	413.48	0.0609	501.7	9.030	17.81	9.71	1.39
	19.55	16.59	67.86	0.00	0.0637	11.64	512.0	413.04	0.0611	501.7	9.031	17.81	9.71	1.39
	20.55	16.57	67.83	0.00	0.0637	11.63	511.6	412.90	0.0613	503.7	9.067	17.89	9.77	1.39
	21.55	16.59	67.83	0.00	0.0636	11.62	511.2	412.60	0.0612	504.1	9.074	17.90	9.78	1.39
	22.53	16.59	67.83	0.00	0.0636	11.61	511.1	412.46	0.0612	504.7	9.084	17.92	9.80	1.39
	23.55	16.59	67.83	0.00	0.0637	11.63	511.9	413.15	0.0612	503.9	9.071	17.90	9.77	1.39
	24.53	16.59	67.83	0.00	0.0637	11.62	511.2	412.58	0.0613	504.7	9.084	17.92	9.80	1.39
	25.55	16.59	67.83	0.00	0.0637	11.63	511.6	412.93	0.0614	506.4	9.116	17.98	9.85	1.39
	26.53	16.59	67.83	0.00	0.0637	11.62	511.3	412.69	0.0614	506.1	9.109	17.97	9.84	1.39
	27.55	16.57	67.83	0.00	0.0636	11.62	511.1	412.50	0.0614	507.8	9.140	18.03	9.89	1.39
	28.61	16.59	67.83	0.00	0.0636	11.63	511.8	413.03	0.0615	506.3	9.114	17.98	9.84	1.39
	29.55	16.57	67.83	0.00	0.0637	11.62	511.3	412.60	0.0616	506.9	9.123	18.00	9.86	1.39
	30.55	16.59	67.86	0.00	0.0636	11.61	511.0	412.30	0.0616	508.4	9.151	18.05	9.90	1.39
	31.55	16.59	67.86	0.00	0.0637	11.62	511.5	412.63	0.0615	508.7	9.157	18.06	9.91	1.39
	32.55	16.61	67.83	0.00	0.0636	11.61	510.7	412.16	0.0618	509.2	9.166	18.08	9.93	1.39
	33.55	16.61	67.83	0.00	0.0636	11.61	510.7	412.22	0.0618	510.1	9.181	18.11	9.96	1.39
	34.55	16.61	67.83	0.00	0.0636	11.61	510.9	412.37	0.0616	510.5	9.189	18.13	9.97	1.39
	35.55	16.61	67.81	0.00	0.0636	11.61	511.0	412.60	0.0618	511.3	9.203	18.16	9.99	1.39
	36.55	16.61	67.83	0.00	0.0637	11.60	510.5	412.04	0.0618	509.6	9.173	18.10	9.94	1.39
	37.53	16.61	67.83	0.00	0.0636	11.62	511.2	412.56	0.0621	514.8	9.266	18.28	10.09	1.39
	38.55	16.61	67.83	0.00	0.0636	11.61	510.7	412.19	0.0619	512.5	9.225	18.20	10.03	1.39
	39.53	16.62	67.83	0.00	0.0636	11.61	510.8	412.31	0.0620	512.5	9.224	18.20	10.03	1.39
	40.55	16.61	67.86	0.00	0.0636	11.62	511.3	412.52	0.0620	513.7	9.247	18.24	10.06	1.39
	41.61	16.61	67.86	0.00	0.0635	11.60	510.2	411.65	0.0620	512.2	9.220	18.18	10.02	1.39
	42.55	16.62	67.83	0.00	0.0635	11.61	510.9	412.37	0.0620	513.2	9.238	18.23	10.05	1.39
	43.55	16.61	67.83	0.00	0.0636	11.60	510.4	411.99	0.0621	514.8	9.267	18.28	10.09	1.39
	44.55	16.62	67.83	0.00	0.0637	11.61	510.8	412.28	0.0622	516.0	9.289	18.33	10.13	1.39
	45.55	16.62	67.83	0.00	0.0636	11.61	510.7	412.25	0.0621	514.4	9.258	18.27	10.08	1.39
	46.55	16.61	67.83	0.00	0.0635	11.59	510.1	411.68	0.0623	516.8	9.303	18.35	10.15	1.39
	47.55	16.64	67.83	0.00	0.0635	11.61	510.8	412.30	0.0621	515.9	9.286	18.32	10.13	1.39
	48.55	16.62	67.83	0.00	0.0636	11.61	510.8	412.33	0.0621	516.6	9.298	18.35	10.14	1.39
	49.55	16.64	67.83	0.00	0.0636	11.60	510.3	411.91	0.0623	517.6	9.317	18.38	10.18	1.39
	50.53	16.62	67.83	0.00	0.0636	11.61	510.6	412.16	0.0623	515.7	9.283	18.32	10.12	1.39
	51.55	16.61	67.83	0.00	0.0635	11.60	510.2	411.79	0.0624	516.9	9.304	18.36	10.15	1.39
	52.53	16.64	67.83	0.00	0.0636	11.60	510.3	411.93	0.0626	519.0	9.341	18.43	10.21	1.39
	53.55	16.64	67.83	0.00	0.0635	11.58	509.5	411.31	0.0624	517.9	9.322	18.39	10.18	1.39
	54.55	16.62	67.81	0.00	0.0635	11.59	510.0	411.82	0.0624	517.3	9.311	18.38	10.17	1.39
	55.55	16.62	67.83	0.00	0.0635	11.59	510.0	411.68	0.0623	518.2	9.328	18.41	10.19	1.39
	56.55	16.64	67.83	0.00	0.0635	11.59	510.1	411.73	0.0625	520.9	9.376	18.50	10.27	1.39
	57.55	16.64	67.86	0.00	0.0635	11.60	510.2	411.72	0.0625	518.4	9.332	18.41	10.20	1.39
	58.55	16.64	67.83	0.00	0.0635	11.59	509.9	411.59	0.0625	520.4	9.367	18.48	10.26	1.39
	59.55	16.64	67.83	0.00	0.0635	11.60	510.3	411.89	0.0625	519.5	9.351	18.45	10.23	1.39
	60.55	16.64	67.83	0.00	0.0635	11.60	510.4	411.98	0.0625	519.9	9.357	18.46	10.24	1.39
	61.55	16.64	67.83	0.00	0.0635	11.59	509.9	411.56	0.0625	520.6	9.371	18.49	10.26	1.39
	62.55	16.66	67.83	0.00	0.0635	11.60	510.4	412.03	0.0630	520.3	9.366	18.48	10.25	1.39
	63.55	16.66	67.83	0.00	0.0635	11.60	510.4	412.04	0.0627	520.8	9.374	18.50	10.27	1.39
	64.55	16.66	67.83	0.00	0.0636	11.59	509.8	411.53	0.0627	522.8	9.410	18.57	10.33	1.39
	65.53	16.66	67.83	0.00	0.0635	11.58	509.6	411.35	0.0626	520.9	9.377	18.50	10.27	1.39
	66.55	16.66	67.83	0.00	0.0635	11.58	509.4	411.21	0.0629	523.2	9.417	18.58	10.34	1.39
	67.53	16.66	67.84	0.00	0.0635	11.57	509.2	411.05	0.0630	525.3	9.456	18.66	10.40	1.39
	68.55	16.66	67.86	0.00	0.0634	11.57	509.3	410.97	0.0629	524.4	9.439	18.62	10.37	1.39
	69.62	16.66	67.83	0.00	0.0635	11.58	509.7	411.49	0.0629	523.4	9.421	18.59	10.34	1.39
	70.55	16.66	67.83	0.00	0.0635	11.60	510.3	411.92	0.0628	522.8	9.410	18.57	10.32	1.39
	71.55	16.66	67.86	0.00	0.0635	11.59	509.7	411.34	0.0629	524.5	9.440	18.62	10.37	1.39
	72.55	16.67	67.81	0.00	0.0634	11.57	509.2	411.26	0.0630	526.6	9.479	18.71	10.44	1.39
	73.55	16.66	67.83	0.00	0.0635	11.57	509.2	411.05	0.0629	524.5	9.441	18.63	10.37	1.39
	74.55	16.66	67.83	0.00	0.0635	11.58	509.5	411.30	0.0631	525.4	9.457	18.66	10.40	1.39
	75.55	16.67	67.83	0.00	0.0635	11.57	509.3	411.15	0.0631	526.9	9.485	18.72	10.44	1.39
	76.55	16.67	67.83	0.00	0.0634	11.57	509.3	411.13	0.0628	523.2	9.417	18.58	10.34	1.39
	77.55	16.67	67.86	0.00	0.0634	11.55	508.4	410.31	0.0630	525.0	9.450	18.64	10.39	1.39
	78.55	16.69	67.83	0.00	0.0634	11.57	508.9	410.86	0.0632	526.8	9.483	18.71	10.44	1.39
	79.55	16.67	67.83	0.00	0.0634	11.57	509.2	411.09	0.0630	525.9	9.467	18.68	10.42	1.39
	80.53	16.71	67.81	0.00	0.0635	11.59	509.8	411.73	0.0631	526.2	9.472	18.70	10.43	1.39
	81.55	16.67	67.83	0.00	0.0634	11.58	509.5	411.32	0.0629	525.1	9.451	18.65	10.39	1.39
	82.62	16.69	67.83	0.00	0.0634	11.57	509.1	411.06	0.0630	525.5	9.460	18.67	10.41	1.39
	83.55	16.67	67.83	0.00	0.0635	11.58	509.4	411.27	0.0633	528.2	9.507	18.76	10.48	1.39
	84.55	16.71	67.83	0.00	0.0634	11.57	509.2	411.11	0.0633	528.6	9.514	18.78	10.49	1.39
	85.55	16.69	67.83	0.00	0.0635	11.57	509.1	411.04	0.0632	527.3	9.491	18.73	10.45	1.39
	86.55	16.67	67.83	0.00	0.0635	11.58	509.3	411.17	0.0632	526.8	9.483	18.71	10.44	1.39
	87.55	16.69	67.86	0.00	0.0634	11.56	508.8	410.60	0.0633	529.1	9.525	18.79	10.51	1.39
	88.55	16.71	67.83	0.00	0.0634	11.57	509.3	411.17	0.0633	528.8	9.519	18.79	10.50	1.39
	89.55	16.69	67.83	0.00	0.0634	11.56	508.4	410.48	0.0634	530.0	9.540	18.83	10.53	1.39
	90.55	16.69	67.83	0.00	0.0633	11.55	508.2	410.32	0.0634	530.4	9.546	18.84	10.54	1.39
	91.55	16.69	67.83	0.00	0.0633	11.56	508.5	410.56	0.0634	530.6	9.550	18.85	10.55	1.39
	92.55	16.69	67.83	0.00	0.0633	11.56	508.5	410.54	0.0635	531.2	9.561	18.87	10.57	1.39
	93.53	16.71	67.83	0.00	0.0634	11.55	508.0	410.16	0.0634	530.0	9.540	18.83	10.53	1.39
	94.55	16.69	67.83	0.00	0.0634	11.57	509.2	411.12	0.0633	529.4	9.530	18.81	10.52	1.39
	95.55	16.71	67.83	0.00	0.0634	11.54	507.8	409.99	0.0636	532.2	9.579	18.91	10.60	1.39
	96.55	16.67	67.83	0.00	0.0634	11.55	508.4	410.42	0.0635	532.0	9.575	18.90	10.59	1.39
	97.55	16.69	67.83	0.00	0.0633	11.55	508.3	410.37	0.0635	532.4	9.583	18.91	10.60	1.39
	98.55	16.69	67.83	0.00	0.0633	11.55	508.3	410.40	0.0635	531.5	9.567	18.88	10.57	1.39
	99.55	16.71	67.83	0.00	0.0633	11.55	508.1	410.21	0.0636	532.8	9.590	18.93	10.61	1.39
	100.55	16.71	67.83	0.00	0.0634	11.54	507.9	410.04	0.0636	533.5	9.603	18.95	10.63	1.39
	101.55	16.69	67.83	0.00	0.0634	11.55	508.2	410.27	0.0638	533.2	9.598	18.94	10.62	1.39
	102.55	16.71	67.83	0.00	0.0633	11.56	508.5	410.54	0.0638	533.3	9.599	18.95	10.63	1.39
	103.55	16.71	67.83	0.00	0.0633	11.55	508.4	410.46	0.0636	533.0	9.595	18.94	10.62	1.39
	104.55	16.69	67.83	0.00	0.0634	11.55	508.2	410.28	0.0636	532.3	9.582	18.91	10.60	1.39
	105.55	16.72	67.83	0.00	0.0633	11.54	507.6	409.89	0.0641	536.8	9.662	19.07	10.72	1.39
	106.55	16.72	67.83	0.00	0.0633	11.54	507.8	409.99	0.0639	536.0	9.648	19.04	10.70	1.39
	107.55	16.71	67.83	0.00	0.0632	11.53	507.5	409.73	0.0639	535.9	9.646	19.04	10.70	1.39
	108.53	16.71	67.83	0.00	0.0633	11.53	507.5	409.74	0.0639	538.0	9.684	19.11	10.76	1.39
	109.55	16.72	67.83	0.00	0.0633	11.54	507.6	409.84	0.0640	536.2	9.651	19.05	10.71	1.39
	110.62	16.72	67.83	0.00	0.0633	11.54	507.7	409.96	0.0642	537.8	9.680	19.11	10.75	1.39
	111.55	16.72	67.83	0.00	0.0632	11.53	507.5	409.75	0.0640	537.2	9.669	19.08	10.74	1.39
	112.55	16.72	67.83	0.00	0.0633	11.53	507.1	409.48	0.0641	538.0	9.684	19.11	10.76	1.39
	113.55	16.71	67.83	0.00	0.0632	11.53	507.3	409.57	0.0642	540.2	9.724	19.19	10.82	1.39
	114.55	16.72	67.83	0.00	0.0632	11.53	507.3	409.62	0.0641	538.6	9.695	19.13	10.78	1.39
	115.55	16.72	67.83	0.00	0.0632	11.53	507.2	409.50	0.0642	539.7	9.715	19.18	10.81	1.39
	116.56	16.74	67.83	0.00	0.0632	11.51	506.3	408.83	0.0642	540.0	9.719	19.18	10.81	1.39
