Mar 12 2018 at 9:41:29
Frequency: 1.00Hz.
CO2
Zero:  Value:0.91  Date:May 19 2009 at 7:53:33 AM
Span:  Value:1.00  Date:May 19 2009 at 8:00:06 AM
H2O
Zero:  Value:0.77  Date:May 19 2009 at 7:54:01 AM
Span:  Value:1.01  Date:28 Jun 2004	 at 08:29:05	
First plot round two
	Relative Time	Temperature	Pressure	Aux Input	CO2 Absorptance	CO2 mmol/m3	CO2 mg/m3	CO2 umol/mol	H2O Absorptance	H2O mmol/m3	H2O g/m3	H2O mmol/mol	H2O(°C)	Cooler Voltage
	0.25	30.39	70.99	0.00	0.0649	11.69	514.4	415.67	0.0590	484.4	8.720	17.22	9.88	1.54
	1.25	30.39	71.04	0.00	0.0707	12.59	554.1	447.41	0.0591	479.0	8.622	17.02	9.71	1.53
	2.25	30.39	71.01	0.00	0.0651	11.78	518.2	418.57	0.0607	490.6	8.830	17.43	10.07	1.53
	3.25	30.37	70.99	0.00	0.0652	11.89	523.2	422.68	0.0605	457.5	8.236	16.26	9.03	1.53
	4.25	30.39	70.99	0.00	0.0650	12.58	553.6	447.34	0.0600	476.3	8.573	16.93	9.63	1.54
	5.25	30.39	71.01	0.00	0.0643	11.56	508.5	410.70	0.0627	520.0	9.361	18.48	10.94	1.54
	6.25	30.39	71.04	0.00	0.0645	11.64	512.3	413.65	0.0614	503.9	9.069	17.90	10.47	1.53
	7.33	30.39	71.01	0.00	0.0655	11.80	519.3	419.45	0.0597	479.2	8.625	17.03	9.72	1.53
	8.25	30.37	71.01	0.00	0.0645	11.76	517.4	417.88	0.0618	494.8	8.906	17.58	10.19	1.53
	9.33	30.39	71.04	0.00	0.0645	11.58	509.5	411.41	0.0631	514.4	9.259	18.27	10.78	1.53
	10.25	30.39	71.01	0.00	0.0654	11.82	520.3	420.24	0.0607	491.8	8.853	17.48	10.11	1.54
	11.27	30.37	70.99	0.00	0.0657	11.68	513.8	415.09	0.0609	495.3	8.915	17.61	10.21	1.54
	12.25	30.37	70.99	0.00	0.0654	11.96	526.4	425.29	0.0602	488.3	8.790	17.36	10.00	1.53
	13.27	30.39	70.99	0.00	0.0644	11.68	513.7	415.09	0.0614	489.7	8.814	17.41	10.04	1.53
	14.25	30.39	71.01	0.00	0.0653	11.85	521.5	421.21	0.0617	504.3	9.077	17.92	10.48	1.53
	15.27	30.39	71.01	0.00	0.0650	11.74	516.6	417.29	0.0626	505.1	9.092	17.95	10.50	1.53
	16.25	30.39	70.99	0.00	0.0641	12.12	533.3	430.94	0.0642	520.3	9.365	18.50	10.95	1.53
	17.27	30.39	70.99	0.00	0.0649	11.68	513.7	415.08	0.0583	482.9	8.692	17.17	9.83	1.54
	18.25	30.39	71.01	0.00	0.0645	11.67	513.6	414.79	0.0603	486.0	8.748	17.27	9.93	1.53
	19.27	30.39	71.01	0.00	0.0672	12.12	533.4	430.84	0.0603	486.3	8.754	17.28	9.94	1.53
	20.25	30.41	71.01	0.00	0.0647	11.79	518.8	419.05	0.0611	493.7	8.886	17.55	10.16	1.53
	21.27	30.38	70.99	0.00	0.0655	11.67	513.3	414.77	0.0627	507.8	9.140	18.05	10.58	1.53
	22.25	30.39	71.01	0.00	0.0643	11.60	510.5	412.33	0.0625	511.1	9.200	18.16	10.68	1.53
	23.27	30.37	71.01	0.00	0.0641	11.60	510.4	412.18	0.0625	512.9	9.232	18.23	10.73	1.53
	24.25	30.39	71.01	0.00	0.0653	11.98	527.2	425.80	0.0625	509.6	9.173	18.11	10.64	1.53
	25.27	30.39	71.01	0.00	0.0647	11.69	514.2	415.34	0.0634	528.2	9.508	18.77	11.18	1.53
	26.25	30.35	70.99	0.00	0.0643	11.67	513.4	414.72	0.0630	513.7	9.246	18.26	10.75	1.53
	27.27	30.39	71.01	0.00	0.0637	11.50	505.8	408.55	0.0637	522.7	9.408	18.57	11.02	1.53
	28.25	30.39	71.01	0.00	0.0636	11.49	505.6	408.38	0.0643	529.5	9.531	18.82	11.21	1.53
	29.27	30.41	70.99	0.00	0.0643	11.58	509.6	411.73	0.0614	505.5	9.099	17.97	10.52	1.53
	30.25	30.39	70.99	0.00	0.0642	11.64	512.0	413.70	0.0613	490.8	8.834	17.45	10.07	1.53
	31.27	30.39	71.01	0.00	0.0645	11.68	513.7	414.94	0.0623	504.2	9.076	17.92	10.48	1.53
	32.25	30.43	71.01	0.00	0.0638	11.57	509.1	411.26	0.0635	518.2	9.328	18.42	10.89	1.53
	33.25	30.39	70.99	0.00	0.0641	11.56	508.7	411.03	0.0626	502.3	9.042	17.86	10.42	1.53
	34.25	30.37	71.01	0.00	0.0641	11.65	512.6	414.00	0.0625	501.8	9.032	17.83	10.40	1.53
	35.25	30.37	70.99	0.00	0.0642	11.60	510.2	412.18	0.0616	494.9	8.909	17.59	10.20	1.53
	36.25	30.39	71.01	0.00	0.0648	11.72	515.7	416.52	0.0608	493.0	8.874	17.52	10.14	1.53
	37.25	30.39	71.01	0.00	0.0648	11.73	516.1	416.84	0.0584	468.4	8.431	16.65	9.38	1.53
	38.25	30.39	70.99	0.00	0.0649	11.70	514.9	416.01	0.0590	471.1	8.479	16.75	9.46	1.53
	39.25	30.39	71.04	0.00	0.0649	11.79	518.9	418.94	0.0580	459.2	8.266	16.31	9.08	1.53
	40.25	30.39	71.01	0.00	0.0653	11.84	521.0	420.84	0.0597	483.4	8.701	17.18	9.85	1.53
	41.25	30.39	70.99	0.00	0.0665	11.93	525.1	424.28	0.0612	476.1	8.570	16.93	9.62	1.53
	42.33	30.41	71.01	0.00	0.0655	11.97	526.6	425.33	0.0600	480.6	8.651	17.08	9.76	1.53
	43.25	30.39	70.99	0.00	0.0650	11.77	518.0	418.52	0.0602	480.0	8.641	17.07	9.74	1.53
	44.33	30.37	70.99	0.00	0.0654	11.84	521.0	420.94	0.0598	481.0	8.658	17.10	9.77	1.53
	45.25	30.39	71.01	0.00	0.0730	13.10	576.5	465.65	0.0621	501.3	9.024	17.82	10.39	1.53
	46.27	30.36	70.94	0.00	0.0666	12.08	531.7	429.87	0.0626	507.7	9.138	18.06	10.58	1.53
	47.25	30.39	70.99	0.00	0.0664	11.92	524.4	423.69	0.0623	494.4	8.899	17.58	10.18	1.53
	48.27	30.39	71.01	0.00	0.0650	11.83	520.6	420.48	0.0596	490.7	8.832	17.44	10.07	1.53
