Mar 12 2018 at 10:23:44
Frequency: 1.00Hz.
CO2
Zero:  Value:0.91  Date:May 19 2009 at 7:53:33 AM
Span:  Value:1.00  Date:May 19 2009 at 8:00:06 AM
H2O
Zero:  Value:0.77  Date:May 19 2009 at 7:54:01 AM
Span:  Value:1.01  Date:28 Jun 2004	 at 08:29:05	
Very bright, low wind, occasional breeze
	Relative Time	Temperature	Pressure	Aux Input	CO2 Absorptance	CO2 mmol/m3	CO2 mg/m3	CO2 umol/mol	H2O Absorptance	H2O mmol/m3	H2O g/m3	H2O mmol/mol	H2O(°C)	Cooler Voltage
	0.12	34.97	70.88	0.00	0.0635	11.44	503.2	413.30	0.0643	531.7	9.571	19.22	11.50	1.56
	1.12	35.00	70.91	0.00	0.0634	11.41	501.9	412.13	0.0646	535.6	9.640	19.35	11.61	1.56
	2.12	34.95	70.88	0.00	0.0632	11.39	501.1	411.59	0.0653	539.2	9.705	19.49	11.71	1.56
	3.11	35.00	70.91	0.00	0.0633	11.40	501.4	411.77	0.0652	542.5	9.766	19.60	11.81	1.56
	4.12	35.00	70.88	0.00	0.0633	11.40	501.5	411.92	0.0654	543.1	9.776	19.63	11.82	1.56
	5.11	35.00	70.86	0.00	0.0633	11.39	501.1	411.80	0.0655	543.0	9.774	19.63	11.82	1.56
	6.12	35.02	70.88	0.00	0.0632	11.36	499.9	410.71	0.0657	547.1	9.849	19.78	11.94	1.56
	7.11	35.02	70.88	0.00	0.0631	11.35	499.6	410.43	0.0662	552.2	9.939	19.96	12.08	1.56
	8.12	35.02	70.88	0.00	0.0631	11.35	499.2	410.12	0.0668	558.4	10.052	20.19	12.25	1.56
	9.11	35.02	70.88	0.00	0.0630	11.33	498.6	409.57	0.0669	560.7	10.092	20.27	12.31	1.56
	10.12	35.02	70.88	0.00	0.0630	11.35	499.3	410.17	0.0667	558.6	10.055	20.19	12.25	1.56
	11.11	34.99	70.88	0.00	0.0630	11.33	498.5	409.47	0.0671	562.6	10.126	20.33	12.36	1.56
	12.12	35.00	70.88	0.00	0.0629	11.32	498.0	409.07	0.0673	566.4	10.195	20.47	12.46	1.56
	13.11	35.00	70.88	0.00	0.0629	11.31	497.7	408.84	0.0680	569.6	10.253	20.59	12.55	1.56
	14.12	35.01	70.91	0.00	0.0628	11.27	496.1	407.37	0.0683	578.9	10.421	20.92	12.80	1.56
	15.11	35.00	70.88	0.00	0.0628	11.28	496.4	407.75	0.0682	577.2	10.389	20.86	12.75	1.56
	16.12	35.02	70.88	0.00	0.0628	11.28	496.3	407.71	0.0685	578.1	10.405	20.90	12.77	1.56
	17.11	34.97	70.88	0.00	0.0626	11.24	494.7	406.35	0.0688	583.0	10.493	21.07	12.90	1.56
	18.12	35.00	70.88	0.00	0.0628	11.27	495.8	407.29	0.0689	582.7	10.489	21.06	12.90	1.56
	19.12	35.02	70.86	0.00	0.0627	11.25	495.2	406.94	0.0694	591.8	10.652	21.40	13.13	1.56
	20.12	35.02	70.88	0.00	0.0627	11.26	495.3	406.87	0.0697	594.6	10.702	21.49	13.20	1.56
	21.20	35.02	70.88	0.00	0.0625	11.18	491.7	403.96	0.0701	600.5	10.810	21.71	13.36	1.56
	22.12	35.02	70.88	0.00	0.0625	11.21	493.2	405.14	0.0701	601.0	10.818	21.72	13.37	1.56
	23.19	35.02	70.88	0.00	0.0625	11.21	493.4	405.37	0.0704	600.9	10.817	21.72	13.37	1.56
	24.12	35.02	70.86	0.00	0.0622	11.17	491.6	403.96	0.0709	610.1	10.982	22.06	13.60	1.56
	25.19	35.02	70.88	0.00	0.0625	11.20	492.6	404.70	0.0709	609.6	10.972	22.03	13.59	1.56
	26.12	35.02	70.91	0.00	0.0624	11.18	491.8	403.84	0.0712	614.5	11.061	22.20	13.71	1.56
	27.19	34.97	70.86	0.00	0.0622	11.10	488.3	401.22	0.0725	653.7	11.767	23.63	14.66	1.56
	28.12	34.97	70.88	0.00	0.0624	11.18	492.0	404.09	0.0717	619.3	11.147	22.38	13.83	1.56
	29.12	35.02	70.91	0.00	0.0623	11.16	491.1	403.28	0.0719	624.4	11.239	22.56	13.96	1.56
	30.12	34.97	70.86	0.00	0.0622	11.15	490.6	403.09	0.0721	624.2	11.235	22.57	13.95	1.56
	31.12	35.02	70.86	0.00	0.0621	11.14	490.4	402.98	0.0730	630.8	11.355	22.81	14.11	1.56
	32.12	35.02	70.88	0.00	0.0621	11.13	489.8	402.38	0.0726	630.5	11.349	22.79	14.11	1.56
	33.12	35.02	70.88	0.00	0.0623	11.16	491.2	403.51	0.0725	629.6	11.332	22.76	14.08	1.56
	34.12	35.02	70.88	0.00	0.0621	11.13	489.5	402.17	0.0729	632.8	11.390	22.87	14.16	1.56
	35.12	35.02	70.88	0.00	0.0621	11.11	488.9	401.66	0.0732	638.5	11.493	23.08	14.30	1.56
	36.12	35.02	70.88	0.00	0.0621	11.14	490.2	402.71	0.0733	636.4	11.456	23.00	14.25	1.56
	37.12	34.99	70.88	0.00	0.0622	11.15	490.6	402.98	0.0729	633.7	11.407	22.91	14.18	1.56
	38.12	35.04	70.86	0.00	0.0620	11.10	488.3	401.29	0.0735	641.4	11.546	23.20	14.37	1.56
	39.12	35.02	70.88	0.00	0.0620	11.11	488.7	401.46	0.0737	644.5	11.602	23.30	14.45	1.56
	40.12	34.97	70.88	0.00	0.0621	11.11	489.0	401.68	0.0738	647.8	11.660	23.41	14.52	1.56
	41.12	35.02	70.91	0.00	0.0621	11.12	489.4	401.90	0.0738	646.2	11.631	23.35	14.49	1.57
	42.12	35.02	70.88	0.00	0.0620	11.12	489.2	401.86	0.0742	649.7	11.695	23.49	14.57	1.56
	43.12	35.02	70.88	0.00	0.0621	11.11	488.6	401.41	0.0743	653.1	11.756	23.61	14.65	1.56
	44.12	35.00	70.88	0.00	0.0620	11.11	488.7	401.47	0.0743	652.3	11.741	23.58	14.63	1.56
	45.12	35.02	70.88	0.00	0.0620	11.11	488.6	401.42	0.0745	654.2	11.775	23.65	14.68	1.56
	46.12	35.02	70.88	0.00	0.0620	11.09	488.1	400.98	0.0747	655.6	11.801	23.70	14.71	1.57
	47.12	35.02	70.86	0.00	0.0619	11.07	487.0	400.24	0.0749	662.4	11.923	23.95	14.87	1.57
	48.12	34.99	70.88	0.00	0.0619	11.06	486.7	399.76	0.0753	665.2	11.973	24.04	14.93	1.56
	49.12	35.02	70.86	0.00	0.0619	11.09	487.9	400.99	0.0753	662.7	11.929	23.96	14.88	1.56
	50.11	35.02	70.88	0.00	0.0619	11.07	487.1	400.14	0.0754	667.0	12.005	24.11	14.98	1.56
	51.12	35.02	70.83	0.00	0.0619	11.07	487.1	400.44	0.0754	667.9	12.023	24.16	15.00	1.56
	52.11	35.02	70.88	0.00	0.0618	11.03	485.5	398.86	0.0760	673.7	12.127	24.35	15.13	1.57
	53.12	35.02	70.86	0.00	0.0618	11.06	486.5	399.84	0.0760	673.9	12.129	24.37	15.14	1.57
	54.11	34.99	70.91	0.00	0.0618	11.04	485.6	398.76	0.0763	678.4	12.212	24.51	15.24	1.57
	55.12	35.02	70.88	0.00	0.0618	11.05	486.3	399.52	0.0763	677.0	12.186	24.47	15.21	1.57
	56.11	35.02	70.88	0.00	0.0617	11.04	485.6	398.92	0.0766	679.7	12.234	24.57	15.27	1.57
	57.12	35.02	70.88	0.00	0.0618	11.04	485.9	399.14	0.0769	682.5	12.285	24.67	15.33	1.57
	58.11	34.94	70.88	0.00	0.0618	11.05	486.2	399.31	0.0769	685.9	12.347	24.79	15.41	1.57
	59.12	35.00	70.86	0.00	0.0616	11.04	485.8	399.25	0.0774	688.6	12.394	24.90	15.47	1.57
	60.11	34.99	70.91	0.00	0.0618	11.03	485.5	398.65	0.0774	690.6	12.431	24.95	15.52	1.57
	61.12	35.04	70.88	0.00	0.0617	11.02	485.1	398.54	0.0777	694.1	12.495	25.09	15.60	1.57
	62.11	35.02	70.88	0.00	0.0617	11.03	485.1	398.55	0.0778	695.8	12.524	25.15	15.64	1.57
	63.12	35.02	70.86	0.00	0.0617	11.02	485.0	398.54	0.0779	697.0	12.546	25.20	15.66	1.57
	64.11	35.02	70.88	0.00	0.0616	11.01	484.6	398.14	0.0780	699.8	12.597	25.30	15.73	1.57
	65.12	35.02	70.88	0.00	0.0617	11.02	485.0	398.44	0.0783	702.0	12.637	25.38	15.78	1.57
	66.11	34.99	70.86	0.00	0.0616	10.99	483.5	397.34	0.0787	708.2	12.748	25.61	15.91	1.57
	67.12	35.02	70.86	0.00	0.0616	11.02	484.7	398.30	0.0785	706.0	12.708	25.53	15.86	1.57
	68.11	35.02	70.86	0.00	0.0616	11.01	484.4	398.10	0.0786	706.0	12.709	25.53	15.86	1.57
	69.12	34.99	70.83	0.00	0.0616	11.01	484.3	398.06	0.0789	713.5	12.844	25.81	16.03	1.57
	70.12	35.02	70.88	0.00	0.0614	10.99	483.5	397.18	0.0790	712.2	12.820	25.74	16.00	1.57
	71.12	35.00	70.88	0.00	0.0615	10.98	483.1	396.83	0.0793	715.7	12.882	25.87	16.08	1.57
	72.19	35.02	70.88	0.00	0.0616	11.00	483.8	397.48	0.0794	716.4	12.895	25.89	16.09	1.57
	73.12	35.02	70.86	0.00	0.0616	11.00	483.9	397.65	0.0794	717.6	12.916	25.95	16.12	1.57
	74.19	35.04	70.88	0.00	0.0615	10.96	482.3	396.28	0.0795	720.2	12.963	26.03	16.18	1.57
	75.12	35.01	70.86	0.00	0.0615	10.98	483.3	397.16	0.0797	720.8	12.975	26.06	16.19	1.57
	76.19	35.02	70.88	0.00	0.0615	10.98	483.2	396.92	0.0797	722.5	13.005	26.12	16.23	1.57
	77.12	35.02	70.91	0.00	0.0615	10.98	483.3	396.88	0.0799	724.5	13.041	26.18	16.27	1.57
	78.19	35.02	70.86	0.00	0.0614	10.96	482.2	396.25	0.0802	729.3	13.127	26.37	16.37	1.57
	79.12	34.99	70.88	0.00	0.0614	10.94	481.4	395.44	0.0803	730.3	13.145	26.39	16.39	1.57
	80.19	35.02	70.86	0.00	0.0613	10.96	482.2	396.27	0.0803	728.7	13.117	26.35	16.36	1.57
	81.12	34.99	70.88	0.00	0.0614	10.95	481.8	395.77	0.0804	731.9	13.174	26.45	16.43	1.57
	82.12	35.01	70.88	0.00	0.0614	10.95	481.9	395.90	0.0805	733.0	13.194	26.50	16.45	1.57
	83.12	35.02	70.86	0.00	0.0613	10.94	481.3	395.56	0.0810	741.2	13.342	26.80	16.63	1.57
	84.12	35.04	70.86	0.00	0.0613	10.94	481.3	395.59	0.0811	741.0	13.338	26.80	16.62	1.57
	85.12	34.98	70.81	0.00	0.0612	10.92	480.6	395.19	0.0813	742.5	13.365	26.86	16.65	1.57
	86.12	35.04	70.88	0.00	0.0612	10.93	481.0	395.14	0.0814	742.8	13.371	26.85	16.66	1.57
	87.12	35.04	70.86	0.00	0.0613	10.92	480.7	395.05	0.0816	747.6	13.457	27.04	16.76	1.57
	88.12	35.01	70.86	0.00	0.0612	10.93	480.8	395.14	0.0817	748.9	13.480	27.08	16.79	1.57
	89.12	35.04	70.88	0.00	0.0612	10.91	480.2	394.49	0.0818	748.0	13.464	27.04	16.77	1.57
	90.12	35.02	70.88	0.00	0.0612	10.90	479.8	394.16	0.0820	751.3	13.524	27.16	16.84	1.57
	91.12	35.02	70.88	0.00	0.0610	10.89	479.3	393.79	0.0823	753.7	13.567	27.24	16.89	1.57
	92.12	35.02	70.91	0.00	0.0612	10.90	479.8	394.00	0.0822	755.6	13.600	27.30	16.93	1.57
	93.12	35.04	70.88	0.00	0.0611	10.90	479.5	393.94	0.0824	757.5	13.634	27.38	16.97	1.57
	94.12	34.99	70.91	0.00	0.0611	10.89	479.1	393.42	0.0825	759.1	13.663	27.43	17.00	1.57
	95.12	35.04	70.88	0.00	0.0611	10.88	478.9	393.41	0.0825	760.3	13.685	27.48	17.03	1.57
	96.12	35.04	70.88	0.00	0.0611	10.88	478.8	393.36	0.0827	761.4	13.706	27.52	17.05	1.57
	97.11	35.01	70.88	0.00	0.0610	10.88	478.6	393.14	0.0827	764.0	13.752	27.62	17.10	1.57
	98.12	35.04	70.88	0.00	0.0610	10.86	478.0	392.70	0.0832	767.7	13.818	27.75	17.18	1.57
	99.11	35.04	70.86	0.00	0.0609	10.86	477.8	392.66	0.0834	770.1	13.861	27.85	17.23	1.58
	100.12	35.01	70.91	0.00	0.0610	10.87	478.2	392.73	0.0832	768.5	13.833	27.77	17.20	1.57
	101.11	35.04	70.88	0.00	0.0609	10.86	478.0	392.75	0.0833	771.4	13.886	27.89	17.26	1.57
	102.12	35.04	70.88	0.00	0.0609	10.86	477.8	392.52	0.0837	774.1	13.933	27.98	17.31	1.57
	103.11	35.04	70.86	0.00	0.0609	10.86	477.8	392.70	0.0838	775.9	13.967	28.06	17.35	1.57
	104.12	35.01	70.86	0.00	0.0609	10.84	477.0	392.02	0.0838	776.2	13.971	28.07	17.35	1.58
	105.11	34.96	70.88	0.00	0.0609	10.84	477.0	391.79	0.0839	778.7	14.016	28.14	17.40	1.58
	106.12	35.04	70.86	0.00	0.0608	10.83	476.6	391.71	0.0846	783.1	14.096	28.32	17.50	1.58
	107.11	35.04	70.86	0.00	0.0609	10.83	476.6	391.69	0.0842	783.0	14.094	28.31	17.49	1.58
	108.12	34.99	70.88	0.00	0.0608	10.84	476.9	391.72	0.0843	784.0	14.112	28.34	17.51	1.58
	109.11	34.99	70.86	0.00	0.0608	10.82	476.1	391.25	0.0846	787.1	14.168	28.46	17.57	1.58
	110.12	35.04	70.86	0.00	0.0608	10.84	476.8	391.83	0.0848	790.3	14.226	28.58	17.64	1.58
	111.20	35.04	70.88	0.00	0.0608	10.82	476.1	391.12	0.0849	792.3	14.261	28.64	17.68	1.58
	112.12	35.06	70.86	0.00	0.0608	10.83	476.3	391.51	0.0850	792.2	14.260	28.65	17.68	1.58
	113.11	35.00	70.86	0.00	0.0608	10.83	476.5	391.60	0.0851	794.6	14.302	28.73	17.72	1.58
	114.12	35.01	70.88	0.00	0.0608	10.82	476.1	391.14	0.0852	795.6	14.321	28.76	17.75	1.58
	115.11	35.04	70.86	0.00	0.0608	10.81	475.6	390.85	0.0853	799.5	14.392	28.91	17.83	1.58
	116.12	35.04	70.86	0.00	0.0608	10.82	475.9	391.13	0.0854	798.9	14.381	28.89	17.81	1.58
	117.11	35.01	70.88	0.00	0.0608	10.82	476.1	391.08	0.0856	800.7	14.413	28.94	17.85	1.58
	118.12	35.02	70.83	0.00	0.0608	10.82	476.0	391.29	0.0857	803.0	14.455	29.05	17.89	1.58
	119.11	35.04	70.88	0.00	0.0608	10.81	475.5	390.65	0.0858	804.9	14.487	29.09	17.93	1.58
	120.12	35.01	70.88	0.00	0.0608	10.82	476.3	391.25	0.0861	808.1	14.545	29.21	17.99	1.58
	121.11	35.01	70.86	0.00	0.0607	10.80	475.4	390.66	0.0862	810.0	14.580	29.29	18.03	1.58
	122.12	35.04	70.88	0.00	0.0608	10.82	476.2	391.20	0.0858	805.7	14.502	29.13	17.95	1.58
	123.12	35.04	70.88	0.00	0.0608	10.81	475.8	390.94	0.0862	810.4	14.587	29.29	18.04	1.58
	124.12	35.01	70.88	0.00	0.0607	10.82	475.9	390.99	0.0864	813.7	14.646	29.41	18.10	1.58
	125.19	35.09	70.86	0.00	0.0608	10.82	476.0	391.28	0.0865	814.9	14.668	29.47	18.13	1.58
	126.12	35.09	70.88	0.00	0.0607	10.82	476.0	391.10	0.0866	816.1	14.690	29.51	18.15	1.58
	127.19	35.06	70.86	0.00	0.0609	10.81	475.5	390.86	0.0851	814.5	14.661	29.46	18.12	1.58
	130.95	35.09	70.88	0.00	0.0607	10.82	476.0	391.15	0.0869	815.3	14.676	29.48	18.14	1.58
	131.00	34.98	70.88	0.00	0.0607	10.81	475.5	390.59	0.0868	818.6	14.735	29.59	18.20	1.58
	131.00	35.04	70.88	0.00	0.0605	10.79	474.9	390.16	0.0872	817.2	14.709	29.54	18.17	1.58
