Mar 12 2018 at 12:32:40
Frequency: 1.00Hz.
CO2
Zero:  Value:0.91  Date:May 19 2009 at 7:53:33 AM
Span:  Value:1.00  Date:May 19 2009 at 8:00:06 AM
H2O
Zero:  Value:0.77  Date:May 19 2009 at 7:54:01 AM
Span:  Value:1.01  Date:28 Jun 2004	 at 08:29:05	
Overcast, drizzle, PAR fluctuations
	Relative Time	Temperature	Pressure	Aux Input	CO2 Absorptance	CO2 mmol/m3	CO2 mg/m3	CO2 umol/mol	H2O Absorptance	H2O mmol/m3	H2O g/m3	H2O mmol/mol	H2O(°C)	Cooler Voltage
	1.00	30.11	70.33	0.00	0.0646	11.74	516.5	420.84	0.0683	575.8	10.364	20.64	12.47	1.51
	2.00	30.12	70.33	0.00	0.0647	11.73	516.0	420.39	0.0684	579.1	10.424	20.76	12.56	1.51
	3.00	30.14	70.33	0.00	0.0647	11.72	515.5	420.00	0.0682	590.7	10.632	21.18	12.86	1.51
	4.00	30.14	70.31	0.00	0.0646	11.73	516.3	420.82	0.0681	583.3	10.499	20.92	12.67	1.51
	5.00	30.09	70.33	0.00	0.0646	11.72	515.8	420.20	0.0691	583.8	10.509	20.93	12.68	1.51
	6.00	30.09	70.33	0.00	0.0646	11.72	515.7	420.09	0.0684	583.2	10.497	20.90	12.66	1.51
	7.00	30.12	70.33	0.00	0.0646	11.72	515.8	420.26	0.0687	583.5	10.503	20.92	12.67	1.51
	8.00	30.09	70.33	0.00	0.0645	11.72	515.8	420.18	0.0697	589.4	10.609	21.13	12.82	1.51
	9.00	30.09	70.33	0.00	0.0646	11.72	515.6	420.05	0.0689	587.1	10.568	21.05	12.77	1.51
	10.00	30.12	70.33	0.00	0.0646	11.72	515.7	420.14	0.0691	589.5	10.611	21.13	12.83	1.51
	11.00	30.16	70.33	0.00	0.0645	11.71	515.4	419.97	0.0697	596.1	10.729	21.37	13.00	1.51
	12.08	30.12	70.31	0.00	0.0645	11.72	515.5	420.14	0.0696	594.4	10.699	21.31	12.95	1.51
	13.00	30.10	70.33	0.00	0.0646	11.71	515.4	419.88	0.0704	600.4	10.807	21.52	13.11	1.51
	14.08	30.16	70.33	0.00	0.0645	11.71	515.1	419.73	0.0701	599.4	10.789	21.49	13.09	1.51
	15.00	30.14	70.33	0.00	0.0645	11.71	515.4	419.91	0.0704	607.2	10.929	21.77	13.28	1.51
	16.00	30.14	70.33	0.00	0.0645	11.68	514.0	418.82	0.0707	610.1	10.981	21.87	13.35	1.51
	17.00	30.14	70.33	0.00	0.0645	11.71	515.1	419.71	0.0704	604.9	10.888	21.69	13.22	1.51
	18.02	30.09	70.33	0.00	0.0645	11.68	514.1	418.81	0.0706	608.0	10.944	21.79	13.30	1.51
	19.00	30.10	70.31	0.00	0.0645	11.70	514.9	419.65	0.0706	606.5	10.917	21.75	13.26	1.51
	20.02	30.12	70.33	0.00	0.0645	11.69	514.6	419.23	0.0709	612.2	11.019	21.95	13.41	1.51
	21.00	30.12	70.33	0.00	0.0645	11.69	514.4	419.09	0.0714	616.4	11.096	22.10	13.51	1.51
	22.02	30.12	70.33	0.00	0.0645	11.69	514.5	419.20	0.0715	617.5	11.115	22.14	13.54	1.51
	23.00	30.12	70.31	0.00	0.0644	11.69	514.4	419.24	0.0714	621.6	11.188	22.29	13.64	1.51
	24.02	30.12	70.31	0.00	0.0645	11.70	514.9	419.62	0.0716	620.5	11.169	22.25	13.61	1.51
	25.00	30.12	70.33	0.00	0.0646	11.71	515.2	419.76	0.0717	619.0	11.142	22.19	13.58	1.51
	26.00	30.12	70.34	0.00	0.0646	11.70	514.9	419.49	0.0716	622.9	11.213	22.33	13.67	1.51
	27.00	30.14	70.36	0.00	0.0645	11.72	515.6	419.95	0.0724	622.4	11.204	22.31	13.66	1.51
	28.00	30.14	70.33	0.00	0.0645	11.71	515.2	419.75	0.0719	621.5	11.186	22.28	13.64	1.51
	29.08	30.14	70.33	0.00	0.0645	11.70	514.9	419.51	0.0728	628.7	11.317	22.54	13.82	1.51
	30.00	30.09	70.34	0.00	0.0646	11.70	514.8	419.42	0.0720	626.0	11.269	22.44	13.75	1.51
	31.02	30.09	70.33	0.00	0.0646	11.71	515.4	419.91	0.0717	623.1	11.215	22.33	13.68	1.51
	32.00	30.14	70.31	0.00	0.0645	11.70	514.7	419.50	0.0721	628.7	11.317	22.55	13.82	1.51
	33.02	30.14	70.33	0.00	0.0645	11.71	515.2	419.79	0.0723	629.1	11.324	22.55	13.83	1.51
	34.00	30.12	70.36	0.00	0.0646	11.70	515.0	419.41	0.0719	627.0	11.285	22.47	13.77	1.51
	35.02	30.14	70.33	0.00	0.0646	11.71	515.2	419.76	0.0721	624.1	11.234	22.37	13.70	1.51
	36.00	30.14	70.33	0.00	0.0645	11.70	514.8	419.45	0.0724	629.2	11.325	22.56	13.83	1.51
	37.02	30.11	70.36	0.00	0.0645	11.68	514.1	418.69	0.0726	631.5	11.368	22.63	13.88	1.51
	38.00	30.14	70.33	0.00	0.0645	11.69	514.5	419.22	0.0732	634.9	11.429	22.76	13.97	1.51
	39.02	30.12	70.33	0.00	0.0645	11.70	514.7	419.36	0.0730	639.6	11.514	22.93	14.08	1.51
	40.00	30.11	70.31	0.00	0.0645	11.68	514.0	418.88	0.0731	649.3	11.688	23.29	14.31	1.51
	41.02	30.14	70.31	0.00	0.0645	11.70	514.9	419.69	0.0734	642.5	11.565	23.04	14.15	1.51
	42.00	30.14	70.34	0.00	0.0645	11.70	514.6	419.31	0.0733	643.1	11.575	23.05	14.16	1.50
	43.00	30.14	70.33	0.00	0.0644	11.69	514.6	419.25	0.0733	640.0	11.520	22.94	14.09	1.51
	44.00	30.11	70.31	0.00	0.0645	11.70	514.9	419.62	0.0738	643.9	11.590	23.09	14.18	1.51
	45.00	30.14	70.33	0.00	0.0645	11.70	514.8	419.41	0.0739	644.2	11.595	23.09	14.19	1.51
	46.08	30.11	70.31	0.00	0.0646	11.71	515.1	419.83	0.0735	642.2	11.560	23.03	14.14	1.51
	47.00	30.11	70.33	0.00	0.0644	11.70	515.0	419.56	0.0739	644.9	11.609	23.12	14.21	1.51
	48.02	30.12	70.31	0.00	0.0645	11.70	514.8	419.54	0.0736	646.1	11.631	23.17	14.24	1.51
	49.00	30.09	70.31	0.00	0.0645	11.70	514.8	419.50	0.0739	648.6	11.674	23.26	14.29	1.51
	50.02	30.09	70.31	0.00	0.0645	11.70	514.8	419.56	0.0741	651.5	11.727	23.36	14.36	1.50
	51.00	30.14	70.33	0.00	0.0645	11.70	514.9	419.55	0.0741	647.9	11.662	23.23	14.28	1.51
	52.02	30.11	70.33	0.00	0.0645	11.70	514.9	419.54	0.0741	652.4	11.743	23.39	14.39	1.51
	53.00	30.12	70.33	0.00	0.0645	11.70	515.0	419.56	0.0739	650.0	11.701	23.30	14.33	1.51
	54.02	30.14	70.33	0.00	0.0646	11.71	515.3	419.87	0.0741	652.6	11.748	23.40	14.39	1.50
	55.00	30.11	70.36	0.00	0.0646	11.71	515.2	419.60	0.0746	653.2	11.758	23.41	14.41	1.51
	56.02	30.18	70.33	0.00	0.0645	11.70	514.6	419.35	0.0742	651.7	11.731	23.37	14.37	1.51
	57.00	30.11	70.33	0.00	0.0646	11.70	514.9	419.52	0.0745	654.5	11.781	23.46	14.44	1.51
	58.02	30.14	70.34	0.00	0.0645	11.70	514.6	419.29	0.0746	656.3	11.814	23.53	14.48	1.51
	59.08	30.18	70.31	0.00	0.0645	11.70	514.7	419.55	0.0745	662.5	11.925	23.76	14.63	1.51
	60.02	30.11	70.28	0.00	0.0645	11.70	514.9	419.84	0.0748	660.3	11.886	23.69	14.57	1.50
	61.08	30.14	70.33	0.00	0.0645	11.71	515.1	419.66	0.0746	661.8	11.912	23.73	14.61	1.50
	62.02	30.11	70.33	0.00	0.0646	11.69	514.3	419.03	0.0746	658.7	11.857	23.61	14.54	1.50
	63.08	30.11	70.31	0.00	0.0646	11.71	515.3	419.99	0.0744	657.6	11.837	23.58	14.51	1.51
	64.02	30.14	70.33	0.00	0.0646	11.71	515.3	419.89	0.0747	659.4	11.870	23.64	14.55	1.51
	65.02	30.14	70.33	0.00	0.0645	11.71	515.4	419.94	0.0746	661.2	11.901	23.70	14.59	1.50
	66.00	30.14	70.33	0.00	0.0646	11.72	515.8	420.23	0.0747	658.8	11.858	23.62	14.54	1.50
	67.02	30.12	70.33	0.00	0.0645	11.71	515.2	419.72	0.0749	665.7	11.983	23.87	14.70	1.50
	68.02	30.14	70.33	0.00	0.0646	11.72	515.7	420.21	0.0749	660.1	11.882	23.66	14.57	1.51
	69.02	30.14	70.33	0.00	0.0646	11.72	515.7	420.22	0.0752	661.4	11.904	23.71	14.60	1.51
	70.00	30.11	70.33	0.00	0.0646	11.72	515.7	420.15	0.0750	664.2	11.956	23.81	14.66	1.51
	71.02	30.11	70.33	0.00	0.0646	11.72	515.6	420.09	0.0752	667.6	12.016	23.93	14.74	1.50
	72.00	30.14	70.33	0.00	0.0646	11.72	515.5	420.04	0.0752	665.4	11.978	23.86	14.69	1.51
	73.02	30.18	70.36	0.00	0.0647	11.72	515.7	420.07	0.0750	665.8	11.984	23.86	14.70	1.51
	74.00	30.14	70.38	0.00	0.0646	11.72	515.6	419.84	0.0753	668.9	12.040	23.96	14.77	1.51
	75.02	30.14	70.33	0.00	0.0646	11.73	516.0	420.47	0.0752	667.9	12.023	23.95	14.75	1.51
	76.08	30.16	70.33	0.00	0.0646	11.72	515.7	420.24	0.0754	669.3	12.047	24.00	14.78	1.51
	77.02	30.14	70.33	0.00	0.0647	11.73	515.9	420.37	0.0753	668.1	12.025	23.95	14.75	1.50
	78.08	30.14	70.33	0.00	0.0646	11.72	515.8	420.26	0.0757	673.3	12.119	24.14	14.88	1.50
	79.02	30.14	70.29	0.00	0.0646	11.73	516.0	420.70	0.0755	667.5	12.014	23.94	14.74	1.50
	80.02	30.14	70.29	0.00	0.0646	11.73	516.2	420.85	0.0759	674.7	12.145	24.21	14.91	1.51
	81.02	30.14	70.36	0.00	0.0647	11.73	516.0	420.29	0.0757	672.5	12.105	24.10	14.86	1.51
	82.02	30.11	70.31	0.00	0.0647	11.73	516.2	420.71	0.0759	672.8	12.111	24.13	14.86	1.50
	83.00	30.14	70.33	0.00	0.0646	11.73	516.3	420.68	0.0755	670.7	12.073	24.05	14.82	1.50
	84.02	30.14	70.33	0.00	0.0646	11.74	516.4	420.72	0.0756	670.6	12.071	24.04	14.81	1.50
	85.00	30.14	70.33	0.00	0.0646	11.73	516.3	420.68	0.0758	673.3	12.120	24.14	14.88	1.51
	86.02	30.14	70.36	0.00	0.0647	11.74	516.4	420.63	0.0757	669.6	12.053	24.00	14.79	1.51
	87.00	30.14	70.33	0.00	0.0646	11.74	516.3	420.71	0.0760	676.6	12.179	24.26	14.95	1.51
	88.02	30.14	70.33	0.00	0.0646	11.73	516.3	420.64	0.0759	675.7	12.162	24.22	14.93	1.50
	89.00	30.16	70.36	0.00	0.0646	11.74	516.6	420.76	0.0759	675.9	12.166	24.22	14.94	1.51
	90.00	30.18	70.31	0.00	0.0646	11.73	516.0	420.66	0.0765	676.7	12.180	24.27	14.96	1.50
	91.00	30.14	70.31	0.00	0.0647	11.74	516.5	421.00	0.0761	675.2	12.154	24.22	14.92	1.50
	92.00	30.14	70.31	0.00	0.0647	11.75	516.9	421.31	0.0764	679.5	12.232	24.37	15.02	1.51
	93.09	30.11	70.33	0.00	0.0647	11.74	516.7	420.96	0.0762	680.6	12.251	24.40	15.04	1.51
	94.02	30.11	70.31	0.00	0.0647	11.74	516.6	421.06	0.0767	685.3	12.335	24.57	15.15	1.51
	95.09	30.14	70.33	0.00	0.0646	11.74	516.4	420.72	0.0768	678.7	12.216	24.33	15.00	1.51
	96.02	30.14	70.31	0.00	0.0647	11.75	517.0	421.41	0.0765	683.0	12.295	24.50	15.10	1.50
	97.03	30.11	70.33	0.00	0.0646	11.73	516.2	420.52	0.0768	684.0	12.312	24.52	15.12	1.51
	98.02	30.11	70.33	0.00	0.0646	11.73	516.0	420.43	0.0762	680.6	12.250	24.40	15.04	1.51
	99.03	30.14	70.31	0.00	0.0647	11.74	516.5	421.00	0.0766	684.3	12.317	24.54	15.13	1.51
	100.02	30.16	70.33	0.00	0.0647	11.75	516.8	421.13	0.0764	683.8	12.308	24.52	15.12	1.51
	101.03	30.14	70.33	0.00	0.0648	11.75	517.0	421.25	0.0766	681.3	12.263	24.42	15.06	1.51
	102.02	30.14	70.31	0.00	0.0647	11.75	517.0	421.39	0.0764	681.7	12.270	24.45	15.07	1.50
	103.03	30.13	70.31	0.00	0.0648	11.76	517.3	421.66	0.0766	681.9	12.274	24.45	15.07	1.51
	104.02	30.16	70.33	0.00	0.0647	11.76	517.5	421.65	0.0765	683.4	12.302	24.50	15.11	1.51
	105.03	30.16	70.31	0.00	0.0647	11.76	517.3	421.63	0.0765	686.0	12.348	24.60	15.17	1.51
	106.02	30.13	70.31	0.00	0.0647	11.76	517.2	421.56	0.0766	684.0	12.311	24.53	15.12	1.50
	107.02	30.11	70.33	0.00	0.0648	11.77	517.8	421.86	0.0771	686.2	12.352	24.60	15.17	1.51
	108.02	30.16	70.33	0.00	0.0648	11.77	517.7	421.85	0.0770	689.1	12.405	24.71	15.24	1.51
	109.02	30.16	70.34	0.00	0.0648	11.76	517.3	421.52	0.0768	684.7	12.325	24.55	15.14	1.51
	110.03	30.11	70.31	0.00	0.0647	11.76	517.3	421.58	0.0771	689.9	12.419	24.74	15.25	1.51
	111.02	30.16	70.31	0.00	0.0648	11.76	517.5	421.85	0.0769	688.3	12.389	24.69	15.22	1.51
	112.03	30.16	70.33	0.00	0.0649	11.77	518.0	422.10	0.0772	687.1	12.367	24.63	15.19	1.51
	113.02	30.16	70.33	0.00	0.0649	11.77	518.1	422.17	0.0770	690.2	12.423	24.75	15.26	1.51
	114.02	30.16	70.36	0.00	0.0649	11.78	518.5	422.34	0.0771	687.0	12.367	24.62	15.19	1.51
	115.02	30.16	70.36	0.00	0.0648	11.78	518.3	422.15	0.0768	688.8	12.398	24.69	15.23	1.51
	116.02	30.16	70.31	0.00	0.0648	11.77	517.9	422.15	0.0770	689.6	12.413	24.73	15.25	1.51
	117.02	30.16	70.31	0.00	0.0649	11.78	518.3	422.43	0.0770	691.2	12.442	24.79	15.28	1.51
	118.02	30.13	70.33	0.00	0.0649	11.79	518.6	422.56	0.0772	690.8	12.434	24.76	15.27	1.51
	119.02	30.13	70.34	0.00	0.0649	11.79	518.6	422.52	0.0773	689.8	12.416	24.73	15.25	1.51
	120.02	30.16	70.33	0.00	0.0649	11.78	518.4	422.39	0.0772	696.4	12.535	24.97	15.40	1.51
	121.02	30.16	70.33	0.00	0.0648	11.78	518.1	422.20	0.0772	693.4	12.480	24.86	15.33	1.51
	122.02	30.14	70.34	0.00	0.0649	11.79	518.6	422.56	0.0774	693.2	12.477	24.85	15.33	1.51
	123.02	30.14	70.31	0.00	0.0649	11.79	518.9	422.90	0.0774	693.3	12.479	24.86	15.33	1.51
	124.02	30.16	70.33	0.00	0.0649	11.79	518.6	422.56	0.0775	694.3	12.497	24.89	15.35	1.51
	125.02	30.14	70.31	0.00	0.0649	11.79	518.8	422.88	0.0774	695.9	12.526	24.96	15.39	1.51
	126.02	30.16	70.31	0.00	0.0649	11.80	519.0	423.05	0.0777	696.3	12.534	24.97	15.40	1.51
	127.03	30.20	70.33	0.00	0.0649	11.79	518.8	422.81	0.0776	697.0	12.547	24.99	15.42	1.51
	128.01	30.18	70.31	0.00	0.0649	11.80	519.2	423.27	0.0774	695.9	12.527	24.96	15.39	1.51
	129.03	30.13	70.33	0.00	0.0650	11.80	519.3	423.08	0.0775	695.4	12.518	24.93	15.38	1.51
	130.01	30.18	70.36	0.00	0.0651	11.80	519.3	423.06	0.0780	704.7	12.684	25.26	15.59	1.51
	131.03	30.20	70.31	0.00	0.0650	11.81	519.6	423.63	0.0777	697.5	12.555	25.02	15.43	1.51
