Mar 12 2018 at 12:28:28
Frequency: 1.00Hz.
CO2
Zero:  Value:0.91  Date:May 19 2009 at 7:53:33 AM
Span:  Value:1.00  Date:May 19 2009 at 8:00:06 AM
H2O
Zero:  Value:0.77  Date:May 19 2009 at 7:54:01 AM
Span:  Value:1.01  Date:28 Jun 2004	 at 08:29:05	
Overcast, drizzle, PAR fluctuations
	Relative Time	Temperature	Pressure	Aux Input	CO2 Absorptance	CO2 mmol/m3	CO2 mg/m3	CO2 umol/mol	H2O Absorptance	H2O mmol/m3	H2O g/m3	H2O mmol/mol	H2O(°C)	Cooler Voltage
	0.20	30.14	70.33	0.00	0.0640	11.56	508.5	414.33	0.0700	601.1	10.820	21.55	13.13	1.51
	1.28	30.14	70.36	0.00	0.0639	11.55	508.1	413.87	0.0709	609.7	10.974	21.85	13.34	1.51
	2.20	30.09	70.31	0.00	0.0640	11.56	508.8	414.63	0.0707	611.5	11.007	21.93	13.39	1.51
	3.22	30.12	70.36	0.00	0.0639	11.55	508.1	413.79	0.0713	616.0	11.088	22.07	13.50	1.51
	4.20	30.12	70.36	0.00	0.0639	11.55	508.2	413.93	0.0708	614.4	11.059	22.02	13.46	1.51
	5.22	30.12	70.33	0.00	0.0638	11.54	507.9	413.80	0.0705	613.6	11.045	22.00	13.44	1.51
	6.20	30.10	70.33	0.00	0.0639	11.56	508.6	414.33	0.0711	613.1	11.035	21.98	13.43	1.51
	7.22	30.09	70.36	0.00	0.0638	11.54	507.7	413.42	0.0717	619.9	11.158	22.21	13.60	1.51
	8.20	30.12	70.33	0.00	0.0638	11.53	507.4	413.39	0.0715	623.8	11.228	22.36	13.69	1.51
	9.22	30.14	70.33	0.00	0.0636	11.52	506.8	412.95	0.0726	624.8	11.246	22.40	13.72	1.51
	10.20	30.12	70.28	0.00	0.0637	11.51	506.6	413.03	0.0727	634.7	11.424	22.77	13.96	1.51
	11.22	30.12	70.33	0.00	0.0636	11.54	507.9	413.78	0.0731	625.4	11.257	22.42	13.73	1.51
	12.20	30.12	70.34	0.00	0.0637	11.53	507.3	413.32	0.0726	631.1	11.360	22.62	13.87	1.51
	13.22	30.09	70.34	0.00	0.0635	11.48	505.0	411.38	0.0738	638.1	11.487	22.87	14.04	1.51
	14.20	30.09	70.31	0.00	0.0637	11.50	505.9	412.29	0.0729	641.0	11.538	22.98	14.11	1.51
	15.22	30.12	70.33	0.00	0.0636	11.48	505.3	411.71	0.0731	648.8	11.679	23.26	14.30	1.51
	16.28	30.14	70.36	0.00	0.0637	11.52	506.8	412.74	0.0730	633.8	11.408	22.71	13.94	1.51
	17.22	30.12	70.36	0.00	0.0636	11.47	504.9	411.19	0.0735	647.9	11.662	23.22	14.28	1.51
	18.22	30.12	70.36	0.00	0.0636	11.49	505.4	411.61	0.0734	641.7	11.551	23.00	14.13	1.51
	19.22	30.14	70.33	0.00	0.0636	11.47	504.8	411.27	0.0743	665.9	11.987	23.87	14.71	1.51
	20.22	30.12	70.33	0.00	0.0635	11.46	504.1	410.74	0.0745	661.5	11.908	23.71	14.60	1.51
	21.22	30.09	70.36	0.00	0.0635	11.47	504.7	411.00	0.0741	650.0	11.700	23.29	14.33	1.51
	22.22	30.14	70.33	0.00	0.0635	11.46	504.2	410.79	0.0741	653.3	11.760	23.42	14.41	1.51
	23.22	30.14	70.33	0.00	0.0635	11.47	504.8	411.31	0.0747	652.7	11.749	23.40	14.39	1.51
	24.22	30.12	70.33	0.00	0.0635	11.47	504.5	411.05	0.0745	662.4	11.923	23.75	14.62	1.51
	25.20	30.11	70.31	0.00	0.0635	11.44	503.5	410.31	0.0753	672.3	12.102	24.11	14.85	1.51
	26.22	30.11	70.34	0.00	0.0634	11.45	503.7	410.32	0.0754	667.9	12.022	23.94	14.75	1.51
	27.20	30.14	70.33	0.00	0.0634	11.44	503.4	410.13	0.0752	668.1	12.026	23.95	14.76	1.51
	28.22	30.14	70.34	0.00	0.0635	11.46	504.2	410.78	0.0757	664.1	11.954	23.81	14.66	1.51
	29.20	30.09	70.34	0.00	0.0633	11.43	503.0	409.77	0.0765	675.3	12.155	24.21	14.92	1.51
	30.20	30.14	70.36	0.00	0.0634	11.44	503.4	409.97	0.0765	675.1	12.152	24.19	14.92	1.51
	31.20	30.16	70.36	0.00	0.0633	11.41	502.2	409.10	0.0764	678.9	12.221	24.33	15.01	1.51
	32.20	30.12	70.36	0.00	0.0633	11.42	502.7	409.37	0.0760	675.9	12.166	24.22	14.93	1.51
	33.28	30.12	70.33	0.00	0.0632	11.41	502.3	409.20	0.0768	686.9	12.364	24.62	15.19	1.51
	34.20	30.14	70.33	0.00	0.0633	11.41	502.0	409.02	0.0764	687.4	12.374	24.64	15.20	1.51
	35.22	30.11	70.34	0.00	0.0632	11.41	502.2	409.15	0.0774	689.7	12.414	24.72	15.25	1.51
	36.20	30.14	70.33	0.00	0.0633	11.42	502.5	409.39	0.0765	684.7	12.325	24.55	15.14	1.51
	37.22	30.12	70.33	0.00	0.0632	11.40	501.6	408.69	0.0774	691.8	12.453	24.80	15.30	1.51
	38.20	30.14	70.36	0.00	0.0633	11.43	502.7	409.45	0.0769	688.1	12.385	24.66	15.21	1.51
	39.22	30.14	70.36	0.00	0.0632	11.41	502.0	408.87	0.0775	690.6	12.431	24.75	15.27	1.51
	40.20	30.12	70.36	0.00	0.0632	11.41	502.1	408.94	0.0778	693.8	12.488	24.86	15.34	1.51
	41.22	30.12	70.36	0.00	0.0633	11.42	502.4	409.19	0.0774	690.9	12.437	24.76	15.28	1.51
	42.22	30.14	70.33	0.00	0.0632	11.40	501.6	408.71	0.0780	700.7	12.613	25.12	15.50	1.51
	43.22	30.12	70.33	0.00	0.0633	11.41	502.1	409.10	0.0784	703.5	12.663	25.22	15.56	1.51
	44.22	30.09	70.33	0.00	0.0631	11.39	501.0	408.15	0.0783	708.4	12.752	25.39	15.67	1.51
	45.22	30.16	70.36	0.00	0.0631	11.38	500.7	407.85	0.0786	708.1	12.746	25.38	15.66	1.51
	46.22	30.12	70.33	0.00	0.0632	11.39	501.0	408.20	0.0789	706.3	12.714	25.32	15.62	1.51
	47.22	30.09	70.33	0.00	0.0632	11.39	501.2	408.34	0.0789	712.3	12.821	25.53	15.75	1.51
	48.22	30.09	70.33	0.00	0.0631	11.37	500.4	407.63	0.0794	715.7	12.882	25.65	15.82	1.51
	49.22	30.14	70.33	0.00	0.0631	11.37	500.4	407.75	0.0789	711.8	12.813	25.52	15.74	1.51
	50.30	30.14	70.33	0.00	0.0632	11.38	500.6	407.86	0.0794	732.1	13.178	26.25	16.18	1.51
	51.22	30.09	70.33	0.00	0.0631	11.37	500.4	407.69	0.0796	726.0	13.068	26.02	16.05	1.50
	52.23	30.09	70.33	0.00	0.0632	11.39	501.2	408.34	0.0798	721.2	12.981	25.85	15.94	1.51
	53.22	30.14	70.33	0.00	0.0631	11.37	500.5	407.78	0.0797	727.1	13.088	26.07	16.07	1.51
	54.22	30.11	70.34	0.00	0.0630	11.36	500.0	407.31	0.0807	727.9	13.102	26.09	16.09	1.51
	55.22	30.09	70.34	0.00	0.0630	11.37	500.3	407.57	0.0803	727.2	13.089	26.06	16.07	1.51
	56.22	30.07	70.33	0.00	0.0631	11.38	500.8	407.95	0.0801	724.9	13.048	25.98	16.02	1.51
	57.22	30.12	70.34	0.00	0.0631	11.37	500.4	407.64	0.0803	730.6	13.151	26.19	16.15	1.51
	58.22	30.12	70.33	0.00	0.0631	11.38	500.5	407.79	0.0805	728.8	13.118	26.13	16.11	1.51
	59.20	30.07	70.33	0.00	0.0631	11.37	500.2	407.42	0.0800	734.6	13.223	26.33	16.23	1.51
	60.22	30.13	70.34	0.00	0.0629	11.35	499.3	406.77	0.0803	735.2	13.234	26.36	16.25	1.51
	61.20	30.09	70.33	0.00	0.0630	11.36	499.8	407.14	0.0807	733.3	13.200	26.29	16.21	1.51
	62.22	30.09	70.33	0.00	0.0630	11.36	499.7	407.05	0.0814	738.2	13.288	26.46	16.31	1.51
	63.20	30.12	70.33	0.00	0.0630	11.35	499.6	407.00	0.0816	743.0	13.374	26.63	16.41	1.51
	64.22	30.12	70.36	0.00	0.0631	11.36	499.8	407.09	0.0806	733.7	13.207	26.29	16.22	1.51
	65.28	30.10	70.33	0.00	0.0630	11.35	499.4	406.83	0.0804	741.6	13.349	26.58	16.38	1.51
	66.22	30.08	70.34	0.00	0.0630	11.35	499.3	406.72	0.0805	737.8	13.280	26.44	16.30	1.51
	67.22	30.05	70.36	0.00	0.0630	11.35	499.3	406.54	0.0810	746.2	13.432	26.73	16.48	1.51
	68.22	30.10	70.34	0.00	0.0630	11.33	498.7	406.23	0.0816	750.2	13.504	26.89	16.56	1.51
	69.22	30.07	70.33	0.00	0.0630	11.34	498.9	406.43	0.0812	744.9	13.407	26.70	16.45	1.51
	70.22	30.10	70.34	0.00	0.0629	11.33	498.4	406.03	0.0817	751.2	13.522	26.93	16.58	1.51
	71.22	30.08	70.31	0.00	0.0629	11.33	498.4	406.19	0.0820	753.4	13.562	27.02	16.63	1.51
	72.20	30.10	70.36	0.00	0.0630	11.34	498.8	406.18	0.0817	758.0	13.644	27.16	16.73	1.51
	73.22	30.10	70.33	0.00	0.0629	11.32	498.3	405.95	0.0819	751.8	13.532	26.95	16.60	1.51
	74.20	30.05	70.33	0.00	0.0630	11.33	498.7	406.24	0.0816	748.0	13.464	26.81	16.51	1.51
	75.22	30.08	70.33	0.00	0.0630	11.34	498.9	406.45	0.0816	749.9	13.498	26.88	16.56	1.51
	76.20	30.07	70.31	0.00	0.0629	11.32	498.3	406.03	0.0823	754.0	13.572	27.03	16.64	1.51
	77.22	30.12	70.33	0.00	0.0629	11.32	497.9	405.63	0.0823	764.1	13.753	27.39	16.85	1.51
	78.20	30.10	70.33	0.00	0.0629	11.32	497.9	405.64	0.0822	758.1	13.645	27.17	16.73	1.51
	79.22	30.10	70.33	0.00	0.0629	11.32	498.0	405.68	0.0831	760.9	13.696	27.27	16.79	1.51
	80.20	30.10	70.33	0.00	0.0628	11.31	497.5	405.32	0.0829	761.7	13.710	27.30	16.80	1.51
	81.22	30.07	70.36	0.00	0.0627	11.30	497.4	405.00	0.0827	762.3	13.722	27.31	16.81	1.51
	82.28	30.10	70.36	0.00	0.0627	11.29	496.9	404.63	0.0830	768.6	13.834	27.54	16.94	1.51
	83.22	30.07	70.33	0.00	0.0628	11.29	496.8	404.72	0.0827	770.7	13.872	27.62	16.99	1.51
	84.22	30.09	70.34	0.00	0.0627	11.29	497.0	404.84	0.0830	766.6	13.799	27.48	16.90	1.51
	85.22	30.10	70.36	0.00	0.0627	11.28	496.5	404.35	0.0835	772.6	13.907	27.69	17.03	1.51
	86.22	30.07	70.36	0.00	0.0627	11.29	496.6	404.42	0.0830	771.5	13.886	27.64	17.00	1.51
	87.20	30.12	70.36	0.00	0.0627	11.29	496.7	404.53	0.0829	767.3	13.811	27.50	16.92	1.51
	88.22	30.07	70.33	0.00	0.0627	11.28	496.2	404.20	0.0834	774.5	13.941	27.76	17.06	1.51
	89.22	30.12	70.33	0.00	0.0626	11.26	495.3	403.55	0.0838	784.4	14.119	28.12	17.27	1.51
	90.22	30.12	70.31	0.00	0.0626	11.27	496.0	404.22	0.0839	778.5	14.012	27.92	17.15	1.51
	91.22	30.12	70.33	0.00	0.0626	11.26	495.5	403.68	0.0845	783.7	14.107	28.10	17.25	1.51
	92.22	30.07	70.33	0.00	0.0625	11.24	494.6	402.89	0.0847	786.2	14.152	28.18	17.30	1.51
	93.20	30.10	70.33	0.00	0.0626	11.24	494.8	403.08	0.0844	788.1	14.186	28.25	17.34	1.51
	94.22	30.10	70.36	0.00	0.0624	11.23	494.2	402.47	0.0848	794.3	14.297	28.46	17.46	1.51
	95.30	30.08	70.34	0.00	0.0626	11.25	494.9	403.14	0.0841	790.7	14.233	28.34	17.39	1.51
	96.22	30.10	70.33	0.00	0.0624	11.23	493.9	402.40	0.0850	799.6	14.392	28.66	17.57	1.51
	97.20	30.05	70.33	0.00	0.0624	11.22	493.6	402.04	0.0849	799.2	14.386	28.64	17.56	1.51
	98.22	30.10	70.34	0.00	0.0624	11.22	493.6	402.08	0.0848	794.7	14.305	28.49	17.47	1.51
	99.28	30.10	70.33	0.00	0.0624	11.22	493.5	402.08	0.0849	796.0	14.327	28.53	17.50	1.51
	100.22	30.10	70.33	0.00	0.0624	11.21	493.2	401.77	0.0848	799.5	14.390	28.66	17.57	1.51
	101.22	30.10	70.33	0.00	0.0625	11.21	493.4	401.99	0.0850	800.8	14.415	28.71	17.59	1.51
	102.22	30.10	70.39	0.00	0.0624	11.20	492.9	401.23	0.0855	804.4	14.479	28.81	17.66	1.51
	103.22	30.07	70.33	0.00	0.0624	11.21	493.2	401.81	0.0853	795.8	14.324	28.52	17.49	1.51
	104.22	30.07	70.36	0.00	0.0624	11.20	493.0	401.45	0.0853	799.7	14.395	28.65	17.57	1.51
	105.22	30.10	70.28	0.00	0.0624	11.20	492.9	401.88	0.0855	801.5	14.426	28.75	17.61	1.51
	106.22	30.10	70.36	0.00	0.0623	11.19	492.2	400.80	0.0852	800.8	14.414	28.69	17.59	1.51
	107.22	30.10	70.33	0.00	0.0623	11.19	492.2	401.01	0.0857	804.8	14.487	28.85	17.67	1.51
	108.22	30.08	70.38	0.00	0.0623	11.20	492.6	400.99	0.0854	801.8	14.432	28.72	17.61	1.51
	109.22	30.10	70.33	0.00	0.0623	11.18	492.0	400.85	0.0861	817.3	14.712	29.30	17.92	1.51
	110.22	30.07	70.36	0.00	0.0623	11.20	492.8	401.29	0.0857	801.6	14.429	28.72	17.61	1.51
	111.22	30.07	70.33	0.00	0.0623	11.20	492.7	401.37	0.0856	804.0	14.472	28.82	17.66	1.51
	112.30	30.10	70.33	0.00	0.0622	11.18	492.0	400.79	0.0860	806.4	14.515	28.91	17.70	1.51
	113.22	30.12	70.36	0.00	0.0622	11.16	490.9	399.82	0.0861	812.5	14.626	29.12	17.83	1.51
	114.30	30.07	70.31	0.00	0.0622	11.17	491.3	400.39	0.0862	818.6	14.734	29.35	17.94	1.51
	115.22	30.10	70.33	0.00	0.0621	11.15	490.5	399.64	0.0866	813.5	14.642	29.16	17.84	1.51
	116.30	30.12	70.33	0.00	0.0621	11.14	490.1	399.33	0.0862	820.0	14.760	29.40	17.97	1.51
	117.22	30.12	70.36	0.00	0.0621	11.15	490.4	399.43	0.0860	816.5	14.698	29.26	17.90	1.51
	118.23	30.07	70.36	0.00	0.0622	11.16	491.2	399.99	0.0859	809.4	14.569	29.00	17.76	1.51
	119.22	30.10	70.33	0.00	0.0621	11.16	491.0	400.01	0.0868	815.0	14.670	29.21	17.87	1.51
	120.23	30.05	70.33	0.00	0.0621	11.12	489.4	398.68	0.0867	821.9	14.794	29.46	18.00	1.51
	121.22	30.10	70.33	0.00	0.0620	11.13	489.9	399.13	0.0866	816.1	14.689	29.25	17.89	1.51
	122.23	30.10	70.36	0.00	0.0620	11.10	488.3	397.70	0.0870	827.2	14.889	29.64	18.11	1.51
	123.22	30.10	70.33	0.00	0.0619	11.10	488.5	397.95	0.0870	825.3	14.856	29.58	18.07	1.52
	124.23	30.10	70.33	0.00	0.0619	11.10	488.3	397.85	0.0871	829.7	14.934	29.74	18.16	1.51
	125.22	30.07	70.33	0.00	0.0618	11.09	488.0	397.51	0.0876	828.8	14.918	29.71	18.14	1.51
	126.22	30.07	70.33	0.00	0.0619	11.09	487.9	397.44	0.0874	831.2	14.961	29.79	18.18	1.51
	127.22	30.07	70.33	0.00	0.0618	11.08	487.5	397.12	0.0883	832.6	14.987	29.84	18.21	1.51
	128.22	30.10	70.33	0.00	0.0618	11.07	487.2	396.90	0.0875	836.7	15.060	29.99	18.29	1.52
	129.22	30.10	70.33	0.00	0.0616	11.07	486.9	396.64	0.0883	833.8	15.008	29.89	18.24	1.52
	130.22	30.10	70.31	0.00	0.0617	11.05	486.2	396.25	0.0879	838.1	15.085	30.05	18.32	1.52
	131.30	30.10	70.33	0.00	0.0616	11.04	485.6	395.58	0.0880	843.8	15.188	30.25	18.42	1.51
	132.22	30.10	70.31	0.00	0.0617	11.04	485.7	395.86	0.0884	843.7	15.187	30.25	18.42	1.51
	133.23	30.10	70.33	0.00	0.0617	11.06	486.6	396.43	0.0876	835.0	15.031	29.93	18.26	1.52
	134.22	30.12	70.36	0.00	0.0618	11.05	486.1	395.91	0.0875	833.6	15.004	29.87	18.23	1.52
	135.23	30.07	70.33	0.00	0.0617	11.06	486.5	396.32	0.0876	834.7	15.025	29.92	18.25	1.52
	136.22	30.12	70.36	0.00	0.0631	11.13	489.6	398.78	0.0755	804.4	14.479	28.83	17.67	1.52
