Mar 12 2018 at 10:10:56
Frequency: 1.00Hz.
CO2
Zero:  Value:0.91  Date:May 19 2009 at 7:53:33 AM
Span:  Value:1.00  Date:May 19 2009 at 8:00:06 AM
H2O
Zero:  Value:0.77  Date:May 19 2009 at 7:54:01 AM
Span:  Value:1.01  Date:28 Jun 2004	 at 08:29:05	
fourth plot
	Relative Time	Temperature	Pressure	Aux Input	CO2 Absorptance	CO2 mmol/m3	CO2 mg/m3	CO2 umol/mol	H2O Absorptance	H2O mmol/m3	H2O g/m3	H2O mmol/mol	H2O(°C)	Cooler Voltage
	0.88	33.66	70.93	0.00	0.0634	11.43	503.1	411.16	0.0738	640.2	11.524	23.02	14.27	1.59
	1.80	33.63	70.91	0.00	0.0632	11.38	500.9	409.50	0.0749	660.7	11.892	23.76	14.76	1.59
	2.80	33.66	70.93	0.00	0.0633	11.39	501.0	409.42	0.0743	649.7	11.695	23.36	14.50	1.59
	3.80	33.63	70.91	0.00	0.0632	11.39	501.0	409.55	0.0745	649.9	11.699	23.38	14.51	1.59
	4.80	33.63	70.93	0.00	0.0631	11.33	498.6	407.49	0.0750	666.9	12.004	23.98	14.90	1.59
	5.80	33.66	70.93	0.00	0.0632	11.38	500.6	409.13	0.0750	657.5	11.835	23.64	14.69	1.59
	6.80	33.68	70.93	0.00	0.0631	11.34	499.0	407.82	0.0755	665.1	11.972	23.92	14.87	1.59
	7.80	33.66	70.93	0.00	0.0630	11.31	497.5	406.62	0.0765	680.7	12.253	24.48	15.22	1.60
	8.80	33.68	70.93	0.00	0.0630	11.33	498.5	407.45	0.0776	746.5	13.437	26.85	16.67	1.59
	9.80	33.68	70.93	0.00	0.0629	11.33	498.7	407.57	0.0766	673.6	12.126	24.23	15.06	1.59
	10.80	33.68	70.93	0.00	0.0630	11.30	497.2	406.39	0.0784	708.2	12.748	25.47	15.84	1.59
	11.80	33.65	70.91	0.00	0.0629	11.31	497.6	406.85	0.0775	693.9	12.490	24.96	15.52	1.59
	12.80	33.70	70.93	0.00	0.0629	11.28	496.1	405.53	0.0788	697.7	12.559	25.09	15.61	1.59
	13.88	33.68	70.93	0.00	0.0628	11.28	496.3	405.60	0.0778	693.4	12.481	24.94	15.51	1.60
	14.80	33.73	70.91	0.00	0.0630	11.33	498.6	407.69	0.0770	684.9	12.328	24.64	15.32	1.60
	15.81	33.70	70.93	0.00	0.0628	11.26	495.5	405.04	0.0778	697.7	12.558	25.09	15.61	1.59
	16.80	33.67	70.91	0.00	0.0628	11.24	494.8	404.52	0.0780	699.6	12.594	25.17	15.65	1.60
	17.80	33.68	70.91	0.00	0.0626	11.25	494.9	404.63	0.0787	704.8	12.687	25.36	15.77	1.59
	18.80	33.67	70.93	0.00	0.0628	11.25	495.0	404.55	0.0788	709.4	12.769	25.51	15.87	1.60
	19.80	33.68	70.91	0.00	0.0628	11.28	496.2	405.68	0.0788	709.7	12.775	25.53	15.88	1.60
	20.80	33.72	70.93	0.00	0.0627	11.28	496.4	405.74	0.0803	746.3	13.434	26.84	16.67	1.60
	21.80	33.72	70.93	0.00	0.0627	11.27	496.0	405.42	0.0799	729.7	13.135	26.25	16.31	1.60
	22.80	33.72	70.93	0.00	0.0625	11.21	493.2	403.18	0.0817	726.1	13.070	26.12	16.24	1.60
	23.80	33.72	70.93	0.00	0.0625	11.20	492.6	402.71	0.0801	725.6	13.060	26.10	16.23	1.60
	24.80	33.72	70.93	0.00	0.0625	11.21	493.4	403.31	0.0808	744.6	13.403	26.78	16.63	1.60
	25.80	33.69	70.91	0.00	0.0625	11.16	490.9	401.35	0.0810	746.3	13.433	26.85	16.67	1.60
	26.88	33.74	70.91	0.00	0.0624	11.21	493.2	403.32	0.0829	751.6	13.528	27.04	16.78	1.60
	27.80	33.74	70.93	0.00	0.0620	11.21	493.4	403.38	0.0827	745.7	13.423	26.82	16.66	1.60
	28.81	33.75	70.91	0.00	0.0622	11.15	490.7	401.29	0.0822	750.1	13.502	26.99	16.75	1.60
	29.80	33.71	70.93	0.00	0.0623	11.16	491.0	401.39	0.0820	759.6	13.672	27.32	16.95	1.60
	30.80	33.74	70.93	0.00	0.0623	11.14	490.2	400.70	0.0819	759.6	13.673	27.32	16.95	1.60
	31.80	33.74	70.91	0.00	0.0625	11.20	492.6	402.83	0.0820	753.3	13.560	27.11	16.82	1.60
	32.80	33.71	70.91	0.00	0.0621	11.22	493.5	403.54	0.0822	748.8	13.478	26.94	16.72	1.60
	33.80	33.71	70.91	0.00	0.0621	11.15	490.7	401.26	0.0832	764.2	13.756	27.50	17.04	1.60
	34.80	33.71	70.91	0.00	0.0623	11.16	491.1	401.60	0.0833	771.8	13.893	27.77	17.20	1.60
	35.80	33.74	70.93	0.00	0.0623	11.15	490.5	400.99	0.0835	767.3	13.812	27.60	17.11	1.60
	36.80	33.76	70.91	0.00	0.0623	11.17	491.3	401.82	0.0830	767.9	13.823	27.63	17.12	1.60
	37.88	33.72	70.93	0.00	0.0621	11.12	489.1	399.86	0.0835	777.0	13.986	27.95	17.30	1.60
	38.80	33.76	70.93	0.00	0.0622	11.09	487.9	398.93	0.0846	778.9	14.021	28.02	17.35	1.60
	39.88	33.75	70.91	0.00	0.0621	11.15	490.6	401.18	0.0836	771.1	13.880	27.75	17.19	1.60
	40.80	33.78	70.91	0.00	0.0619	11.06	486.9	398.21	0.0842	789.7	14.214	28.42	17.56	1.60
	41.81	33.78	70.93	0.00	0.0619	11.09	488.0	398.97	0.0856	789.3	14.207	28.39	17.56	1.60
	42.80	33.78	70.91	0.00	0.0618	11.09	488.0	399.12	0.0866	796.4	14.334	28.66	17.70	1.60
	43.81	33.75	70.93	0.00	0.0621	11.08	487.7	398.74	0.0851	812.9	14.631	29.24	18.02	1.60
	44.80	33.81	70.93	0.00	0.0621	11.10	488.4	399.33	0.0852	801.9	14.435	28.85	17.81	1.60
	45.80	33.78	70.91	0.00	0.0620	11.10	488.3	399.35	0.0847	793.2	14.278	28.55	17.63	1.60
	46.80	33.78	70.93	0.00	0.0618	11.07	487.2	398.31	0.0867	803.2	14.457	28.89	17.83	1.60
	47.80	33.75	70.91	0.00	0.0619	11.07	487.0	398.30	0.0865	813.8	14.649	29.29	18.04	1.60
	48.80	33.80	70.91	0.00	0.0619	11.10	488.3	399.42	0.0854	798.4	14.371	28.73	17.74	1.60
	49.80	33.80	70.93	0.00	0.0620	11.05	486.4	397.72	0.0862	807.9	14.543	29.07	17.93	1.60
	50.80	33.80	70.93	0.00	0.0619	11.06	486.6	397.90	0.0862	817.2	14.709	29.40	18.11	1.60
	51.80	33.77	70.91	0.00	0.0619	11.05	486.1	397.56	0.0865	817.6	14.717	29.42	18.12	1.60
	52.80	33.77	70.91	0.00	0.0618	11.05	486.1	397.54	0.0868	819.1	14.744	29.48	18.14	1.60
	53.80	33.79	70.91	0.00	0.0619	11.06	486.8	398.14	0.0869	820.3	14.766	29.52	18.17	1.61
	54.81	33.82	70.93	0.00	0.0620	11.10	488.2	399.23	0.0863	813.7	14.647	29.28	18.04	1.61
	55.80	33.80	70.93	0.00	0.0619	11.11	488.7	399.62	0.0868	817.5	14.716	29.41	18.12	1.60
	56.81	33.82	70.93	0.00	0.0619	11.10	488.5	399.44	0.0871	825.8	14.864	29.71	18.28	1.60
	57.80	33.85	70.93	0.00	0.0618	11.04	485.8	397.29	0.0874	829.6	14.934	29.85	18.35	1.60
	58.81	33.82	70.93	0.00	0.0619	11.06	486.7	398.02	0.0878	829.9	14.938	29.86	18.36	1.60
	59.80	33.82	70.96	0.00	0.0616	11.00	484.0	395.68	0.0888	839.2	15.105	30.18	18.53	1.61
	60.80	33.85	70.91	0.00	0.0620	11.08	487.4	398.70	0.0878	834.3	15.018	30.03	18.44	1.61
	61.80	33.79	70.88	0.00	0.0618	11.02	484.8	396.65	0.0885	839.4	15.110	30.22	18.54	1.61
	62.80	33.82	70.88	0.00	0.0619	11.08	487.5	398.89	0.0878	833.8	15.008	30.02	18.43	1.61
	63.80	33.85	70.93	0.00	0.0618	11.08	487.5	398.64	0.0883	839.4	15.110	30.20	18.54	1.61
	64.80	33.89	70.91	0.00	0.0617	11.06	486.7	398.18	0.0888	841.9	15.155	30.31	18.59	1.61
	65.80	33.85	70.91	0.00	0.0615	11.00	484.1	396.06	0.0892	855.4	15.398	30.79	18.84	1.61
	66.80	33.87	70.91	0.00	0.0615	10.94	481.3	393.77	0.0893	859.6	15.473	30.94	18.92	1.61
	67.88	33.85	70.93	0.00	0.0619	11.06	486.6	397.91	0.0888	848.7	15.276	30.54	18.71	1.61
	68.80	33.87	70.91	0.00	0.0613	10.95	481.9	394.25	0.0900	860.0	15.480	30.96	18.93	1.61
	69.81	33.87	70.91	0.00	0.0617	11.03	485.3	397.05	0.0897	860.8	15.494	30.99	18.94	1.61
	70.80	33.87	70.93	0.00	0.0616	11.02	485.0	396.62	0.0906	862.9	15.531	31.05	18.98	1.61
	71.81	33.87	70.94	0.00	0.0616	11.02	485.0	396.65	0.0896	856.9	15.424	30.83	18.87	1.61
	72.80	33.87	70.89	0.00	0.0617	11.04	485.7	397.46	0.0897	858.2	15.448	30.90	18.89	1.61
	73.80	33.87	70.93	0.00	0.0615	11.01	484.6	396.33	0.0903	873.7	15.727	31.44	19.18	1.61
	74.80	33.87	70.93	0.00	0.0615	10.98	483.0	395.04	0.0903	865.3	15.576	31.14	19.03	1.61
	75.80	33.89	70.91	0.00	0.0616	11.01	484.2	396.21	0.0901	868.1	15.625	31.25	19.08	1.61
	76.80	33.89	70.93	0.00	0.0615	10.98	482.9	394.99	0.0905	870.6	15.671	31.33	19.13	1.61
	77.80	33.89	70.93	0.00	0.0615	10.99	483.8	395.68	0.0916	877.3	15.791	31.57	19.25	1.61
	78.88	33.91	70.91	0.00	0.0616	11.01	484.6	396.51	0.0905	871.1	15.679	31.36	19.13	1.61
	79.80	33.86	70.93	0.00	0.0616	11.00	484.0	395.83	0.0907	874.5	15.741	31.47	19.19	1.61
	80.81	33.91	70.93	250.00	0.0613	10.99	483.5	395.44	0.0911	876.7	15.780	31.55	19.24	1.61
	81.80	33.93	70.91	0.00	0.0615	10.94	481.5	394.03	0.0914	885.4	15.936	31.88	19.40	1.61
	82.81	33.88	70.93	0.00	0.0613	11.00	484.1	395.95	0.0917	878.3	15.810	31.61	19.27	1.61
	83.80	33.91	70.93	0.00	0.0616	11.01	484.3	396.16	0.0912	881.5	15.867	31.72	19.33	1.61
	84.81	33.91	70.91	0.00	0.0617	11.00	483.9	395.91	0.0915	884.3	15.918	31.84	19.38	1.61
	85.80	33.89	70.93	0.00	0.0616	10.98	483.1	395.11	0.0915	888.6	15.995	31.98	19.45	1.61
	86.81	33.88	70.91	0.00	0.0617	11.01	484.6	396.51	0.0914	884.0	15.912	31.82	19.37	1.61
	87.80	33.91	70.91	0.00	0.0618	11.04	485.7	397.43	0.0916	885.9	15.946	31.89	19.40	1.61
	88.80	33.88	70.91	0.00	0.0617	11.04	485.6	397.33	0.0917	889.8	16.016	32.03	19.47	1.61
	89.80	33.93	70.91	0.00	0.0618	11.03	485.3	397.16	0.0915	885.8	15.944	31.89	19.40	1.62
	90.80	33.90	70.91	0.00	0.0617	11.03	485.2	397.03	0.0920	889.3	16.008	32.02	19.47	1.61
	91.80	33.95	70.91	0.00	0.0617	11.03	485.2	397.03	0.0921	894.9	16.108	32.22	19.57	1.61
	92.80	33.93	70.99	0.00	0.0616	11.03	485.5	396.86	0.0920	894.8	16.106	32.18	19.57	1.61
	93.88	33.93	70.91	0.00	0.0617	11.02	485.1	396.94	0.0920	892.3	16.061	32.13	19.52	1.61
	94.80	33.95	70.91	0.00	0.0617	11.02	484.9	396.79	0.0923	897.2	16.150	32.31	19.61	1.62
	95.81	33.95	70.91	0.00	0.0617	11.01	484.6	396.53	0.0926	900.0	16.199	32.41	19.66	1.61
	96.80	33.95	70.91	0.00	0.0617	10.99	483.7	395.80	0.0928	907.3	16.331	32.67	19.79	1.61
	97.81	33.95	70.88	0.00	0.0617	11.02	485.1	397.12	0.0927	903.7	16.266	32.55	19.73	1.62
	98.80	33.95	70.93	0.00	0.0616	10.99	483.7	395.70	0.0930	909.8	16.377	32.75	19.84	1.62
	99.81	33.92	70.91	0.00	0.0617	11.01	484.5	396.46	0.0928	903.5	16.264	32.53	19.72	1.62
	100.80	33.92	70.91	0.00	0.0615	10.99	483.5	395.60	0.0931	909.1	16.364	32.73	19.82	1.62
	101.80	33.97	70.91	0.00	0.0615	11.00	483.8	395.94	0.0934	910.4	16.388	32.78	19.85	1.62
	102.80	33.97	70.91	0.00	0.0613	10.96	482.1	394.58	0.0936	914.7	16.465	32.94	19.92	1.62
	103.80	33.97	70.91	0.00	0.0614	10.94	481.4	394.03	0.0938	919.1	16.544	33.10	20.00	1.62
	104.80	33.97	70.86	0.00	0.0615	10.95	481.6	394.43	0.0937	921.4	16.586	33.21	20.04	1.62
	105.80	33.99	70.93	0.00	0.0616	10.99	483.8	395.79	0.0936	914.5	16.460	32.92	19.92	1.62
	106.88	33.94	70.91	0.00	0.0615	10.98	483.2	395.39	0.0938	918.9	16.541	33.09	20.00	1.62
	107.80	33.94	70.91	0.00	0.0615	10.98	483.0	395.24	0.0939	921.9	16.594	33.20	20.05	1.62
	108.81	33.99	70.93	0.00	0.0614	10.98	483.2	395.31	0.0942	924.2	16.636	33.27	20.09	1.62
	109.80	34.01	70.91	0.00	0.0616	10.99	483.5	395.79	0.0939	921.4	16.585	33.18	20.04	1.62
	110.81	33.95	70.91	0.00	0.0615	10.97	482.5	394.88	0.0943	928.8	16.719	33.45	20.17	1.62
	111.80	33.99	70.93	0.00	0.0615	10.97	482.7	394.94	0.0942	927.7	16.699	33.40	20.15	1.62
	112.81	33.99	70.91	0.00	0.0614	10.97	482.5	394.95	0.0943	927.4	16.692	33.40	20.15	1.62
	113.80	33.99	70.91	0.00	0.0612	10.93	481.1	393.76	0.0952	942.4	16.962	33.94	20.41	1.62
	114.81	33.99	70.93	0.00	0.0615	10.98	483.0	395.14	0.0944	927.6	16.697	33.39	20.15	1.62
	115.80	33.98	70.93	0.00	0.0614	10.95	481.7	394.14	0.0954	937.0	16.865	33.73	20.31	1.62
	116.80	33.96	70.88	0.00	0.0613	10.95	481.9	394.52	0.0948	932.3	16.781	33.58	20.23	1.62
	117.80	34.01	70.91	0.00	0.0613	10.93	481.1	393.77	0.0950	938.1	16.887	33.79	20.34	1.62
	118.80	34.01	70.93	0.00	0.0613	10.94	481.3	393.85	0.0951	939.2	16.905	33.81	20.35	1.62
	119.81	33.96	70.91	0.00	0.0614	10.96	482.3	394.70	0.0951	941.9	16.953	33.91	20.40	1.62
	120.80	34.01	70.91	0.00	0.0615	10.96	482.1	394.59	0.0951	939.2	16.906	33.83	20.35	1.62
	121.81	34.04	70.93	0.00	0.0613	10.85	477.6	390.78	0.0953	952.3	17.141	34.29	20.58	1.62
	122.80	34.04	70.91	0.00	0.0612	10.93	481.0	393.74	0.0954	942.3	16.961	33.94	20.41	1.62
	123.81	34.01	70.91	0.00	0.0611	10.87	478.2	391.45	0.0960	952.7	17.149	34.31	20.59	1.62
	124.80	34.04	70.93	0.00	0.0613	10.93	480.9	393.54	0.0959	952.0	17.137	34.28	20.57	1.62
	125.81	34.04	70.91	0.00	0.0613	10.94	481.2	393.86	0.0960	951.3	17.123	34.26	20.56	1.62
	126.80	34.01	70.93	0.00	0.0608	10.83	476.6	389.96	0.0959	944.2	16.995	33.99	20.44	1.62
	127.81	34.04	70.93	0.00	0.0614	10.94	481.5	393.98	0.0956	950.0	17.100	34.21	20.54	1.62
	128.80	34.04	70.86	0.00	0.0614	10.90	479.7	392.93	0.0980	979.3	17.628	35.30	21.03	1.62
	129.81	34.01	70.91	0.00	0.0613	10.92	480.3	393.15	0.0965	967.7	17.418	34.85	20.84	1.63
	130.80	34.04	70.88	0.00	0.0614	10.91	480.3	393.28	0.0964	968.9	17.439	34.91	20.86	1.62
	131.80	34.06	70.91	0.00	0.0609	10.92	480.4	393.30	0.0959	939.5	16.911	33.84	20.36	1.62
	132.88	34.06	70.91	0.00	0.0613	10.89	479.3	392.36	0.0970	960.1	17.282	34.58	20.71	1.62
	133.80	34.11	70.93	0.00	0.0612	10.93	480.9	393.65	0.0961	953.4	17.160	34.33	20.60	1.62
